# E (eV)  dos(E)    pdos(E)
  -3.634  0.649E-06  0.648E-06
  -3.624  0.104E-05  0.104E-05
  -3.614  0.164E-05  0.164E-05
  -3.604  0.257E-05  0.257E-05
  -3.594  0.398E-05  0.398E-05
  -3.584  0.611E-05  0.611E-05
  -3.574  0.928E-05  0.928E-05
  -3.564  0.140E-04  0.140E-04
  -3.554  0.208E-04  0.208E-04
  -3.544  0.307E-04  0.307E-04
  -3.534  0.448E-04  0.448E-04
  -3.524  0.648E-04  0.648E-04
  -3.514  0.928E-04  0.928E-04
  -3.504  0.132E-03  0.132E-03
  -3.494  0.185E-03  0.185E-03
  -3.484  0.257E-03  0.257E-03
  -3.474  0.354E-03  0.354E-03
  -3.464  0.483E-03  0.483E-03
  -3.454  0.653E-03  0.653E-03
  -3.444  0.874E-03  0.874E-03
  -3.434  0.116E-02  0.116E-02
  -3.424  0.152E-02  0.152E-02
  -3.414  0.198E-02  0.198E-02
  -3.404  0.256E-02  0.256E-02
  -3.394  0.327E-02  0.327E-02
  -3.384  0.415E-02  0.415E-02
  -3.374  0.521E-02  0.521E-02
  -3.364  0.649E-02  0.649E-02
  -3.354  0.801E-02  0.801E-02
  -3.344  0.980E-02  0.980E-02
  -3.334  0.119E-01  0.119E-01
  -3.324  0.143E-01  0.143E-01
  -3.314  0.171E-01  0.171E-01
  -3.304  0.202E-01  0.202E-01
  -3.294  0.238E-01  0.238E-01
  -3.284  0.277E-01  0.277E-01
  -3.274  0.321E-01  0.321E-01
  -3.264  0.368E-01  0.368E-01
  -3.254  0.420E-01  0.420E-01
  -3.244  0.476E-01  0.475E-01
  -3.234  0.535E-01  0.534E-01
  -3.224  0.597E-01  0.597E-01
  -3.214  0.663E-01  0.663E-01
  -3.204  0.732E-01  0.731E-01
  -3.194  0.802E-01  0.802E-01
  -3.184  0.875E-01  0.875E-01
  -3.174  0.949E-01  0.949E-01
  -3.164  0.102E+00  0.102E+00
  -3.154  0.110E+00  0.110E+00
  -3.144  0.118E+00  0.117E+00
  -3.134  0.125E+00  0.125E+00
  -3.124  0.133E+00  0.133E+00
  -3.114  0.140E+00  0.140E+00
  -3.104  0.147E+00  0.147E+00
  -3.094  0.154E+00  0.154E+00
  -3.084  0.161E+00  0.161E+00
  -3.074  0.168E+00  0.168E+00
  -3.064  0.175E+00  0.175E+00
  -3.054  0.181E+00  0.181E+00
  -3.044  0.187E+00  0.187E+00
  -3.034  0.193E+00  0.193E+00
  -3.024  0.199E+00  0.199E+00
  -3.014  0.205E+00  0.205E+00
  -3.004  0.210E+00  0.210E+00
  -2.994  0.215E+00  0.215E+00
  -2.984  0.221E+00  0.220E+00
  -2.974  0.226E+00  0.225E+00
  -2.964  0.230E+00  0.230E+00
  -2.954  0.235E+00  0.235E+00
  -2.944  0.240E+00  0.240E+00
  -2.934  0.245E+00  0.244E+00
  -2.924  0.249E+00  0.249E+00
  -2.914  0.254E+00  0.253E+00
  -2.904  0.258E+00  0.258E+00
  -2.894  0.262E+00  0.262E+00
  -2.884  0.267E+00  0.267E+00
  -2.874  0.271E+00  0.271E+00
  -2.864  0.275E+00  0.275E+00
  -2.854  0.279E+00  0.279E+00
  -2.844  0.283E+00  0.283E+00
  -2.834  0.287E+00  0.287E+00
  -2.824  0.290E+00  0.290E+00
  -2.814  0.294E+00  0.294E+00
  -2.804  0.297E+00  0.297E+00
  -2.794  0.301E+00  0.301E+00
  -2.784  0.304E+00  0.304E+00
  -2.774  0.307E+00  0.307E+00
  -2.764  0.310E+00  0.310E+00
  -2.754  0.314E+00  0.313E+00
  -2.744  0.317E+00  0.317E+00
  -2.734  0.320E+00  0.320E+00
  -2.724  0.324E+00  0.323E+00
  -2.714  0.327E+00  0.327E+00
  -2.704  0.331E+00  0.331E+00
  -2.694  0.335E+00  0.334E+00
  -2.684  0.338E+00  0.338E+00
  -2.674  0.342E+00  0.342E+00
  -2.664  0.346E+00  0.346E+00
  -2.654  0.349E+00  0.349E+00
  -2.644  0.353E+00  0.353E+00
  -2.634  0.356E+00  0.356E+00
  -2.624  0.360E+00  0.359E+00
  -2.614  0.363E+00  0.362E+00
  -2.604  0.366E+00  0.365E+00
  -2.594  0.368E+00  0.368E+00
  -2.584  0.371E+00  0.370E+00
  -2.574  0.373E+00  0.373E+00
  -2.564  0.375E+00  0.375E+00
  -2.554  0.377E+00  0.377E+00
  -2.544  0.379E+00  0.379E+00
  -2.534  0.381E+00  0.381E+00
  -2.524  0.383E+00  0.383E+00
  -2.514  0.386E+00  0.385E+00
  -2.504  0.388E+00  0.388E+00
  -2.494  0.390E+00  0.390E+00
  -2.484  0.393E+00  0.393E+00
  -2.474  0.396E+00  0.396E+00
  -2.464  0.399E+00  0.399E+00
  -2.454  0.402E+00  0.402E+00
  -2.444  0.406E+00  0.405E+00
  -2.434  0.409E+00  0.409E+00
  -2.424  0.413E+00  0.413E+00
  -2.414  0.417E+00  0.416E+00
  -2.404  0.420E+00  0.420E+00
  -2.394  0.424E+00  0.423E+00
  -2.384  0.427E+00  0.427E+00
  -2.374  0.431E+00  0.431E+00
  -2.364  0.434E+00  0.434E+00
  -2.354  0.437E+00  0.437E+00
  -2.344  0.440E+00  0.440E+00
  -2.334  0.443E+00  0.442E+00
  -2.324  0.445E+00  0.445E+00
  -2.314  0.447E+00  0.447E+00
  -2.304  0.449E+00  0.448E+00
  -2.294  0.450E+00  0.450E+00
  -2.284  0.451E+00  0.451E+00
  -2.274  0.452E+00  0.452E+00
  -2.264  0.453E+00  0.452E+00
  -2.254  0.453E+00  0.453E+00
  -2.244  0.454E+00  0.454E+00
  -2.234  0.454E+00  0.454E+00
  -2.224  0.455E+00  0.455E+00
  -2.214  0.456E+00  0.456E+00
  -2.204  0.458E+00  0.457E+00
  -2.194  0.459E+00  0.459E+00
  -2.184  0.462E+00  0.461E+00
  -2.174  0.464E+00  0.464E+00
  -2.164  0.468E+00  0.467E+00
  -2.154  0.471E+00  0.471E+00
  -2.144  0.476E+00  0.475E+00
  -2.134  0.480E+00  0.480E+00
  -2.124  0.485E+00  0.485E+00
  -2.114  0.490E+00  0.490E+00
  -2.104  0.495E+00  0.495E+00
  -2.094  0.500E+00  0.500E+00
  -2.084  0.505E+00  0.504E+00
  -2.074  0.509E+00  0.509E+00
  -2.064  0.513E+00  0.513E+00
  -2.054  0.516E+00  0.516E+00
  -2.044  0.519E+00  0.518E+00
  -2.034  0.521E+00  0.520E+00
  -2.024  0.522E+00  0.522E+00
  -2.014  0.523E+00  0.522E+00
  -2.004  0.523E+00  0.523E+00
  -1.994  0.523E+00  0.522E+00
  -1.984  0.522E+00  0.522E+00
  -1.974  0.521E+00  0.521E+00
  -1.964  0.520E+00  0.520E+00
  -1.954  0.519E+00  0.519E+00
  -1.944  0.518E+00  0.518E+00
  -1.934  0.518E+00  0.517E+00
  -1.924  0.518E+00  0.517E+00
  -1.914  0.518E+00  0.518E+00
  -1.904  0.519E+00  0.518E+00
  -1.894  0.520E+00  0.520E+00
  -1.884  0.522E+00  0.522E+00
  -1.874  0.524E+00  0.524E+00
  -1.864  0.527E+00  0.527E+00
  -1.854  0.531E+00  0.530E+00
  -1.844  0.535E+00  0.534E+00
  -1.834  0.539E+00  0.539E+00
  -1.824  0.544E+00  0.543E+00
  -1.814  0.548E+00  0.548E+00
  -1.804  0.553E+00  0.553E+00
  -1.794  0.558E+00  0.557E+00
  -1.784  0.562E+00  0.562E+00
  -1.774  0.567E+00  0.566E+00
  -1.764  0.571E+00  0.570E+00
  -1.754  0.575E+00  0.574E+00
  -1.744  0.578E+00  0.577E+00
  -1.734  0.581E+00  0.580E+00
  -1.724  0.583E+00  0.583E+00
  -1.714  0.585E+00  0.585E+00
  -1.704  0.587E+00  0.586E+00
  -1.694  0.588E+00  0.588E+00
  -1.684  0.589E+00  0.589E+00
  -1.674  0.590E+00  0.590E+00
  -1.664  0.591E+00  0.590E+00
  -1.654  0.591E+00  0.591E+00
  -1.644  0.592E+00  0.591E+00
  -1.634  0.593E+00  0.592E+00
  -1.624  0.593E+00  0.592E+00
  -1.614  0.594E+00  0.593E+00
  -1.604  0.594E+00  0.594E+00
  -1.594  0.595E+00  0.594E+00
  -1.584  0.596E+00  0.595E+00
  -1.574  0.596E+00  0.596E+00
  -1.564  0.597E+00  0.596E+00
  -1.554  0.597E+00  0.597E+00
  -1.544  0.598E+00  0.597E+00
  -1.534  0.598E+00  0.597E+00
  -1.524  0.598E+00  0.598E+00
  -1.514  0.598E+00  0.598E+00
  -1.504  0.599E+00  0.598E+00
  -1.494  0.599E+00  0.598E+00
  -1.484  0.599E+00  0.599E+00
  -1.474  0.600E+00  0.599E+00
  -1.464  0.601E+00  0.600E+00
  -1.454  0.603E+00  0.602E+00
  -1.444  0.604E+00  0.604E+00
  -1.434  0.607E+00  0.606E+00
  -1.424  0.610E+00  0.609E+00
  -1.414  0.614E+00  0.613E+00
  -1.404  0.618E+00  0.617E+00
  -1.394  0.623E+00  0.622E+00
  -1.384  0.628E+00  0.627E+00
  -1.374  0.634E+00  0.633E+00
  -1.364  0.640E+00  0.639E+00
  -1.354  0.646E+00  0.645E+00
  -1.344  0.652E+00  0.651E+00
  -1.334  0.658E+00  0.657E+00
  -1.324  0.664E+00  0.663E+00
  -1.314  0.669E+00  0.669E+00
  -1.304  0.674E+00  0.674E+00
  -1.294  0.679E+00  0.678E+00
  -1.284  0.682E+00  0.682E+00
  -1.274  0.685E+00  0.684E+00
  -1.264  0.687E+00  0.686E+00
  -1.254  0.688E+00  0.687E+00
  -1.244  0.688E+00  0.687E+00
  -1.234  0.687E+00  0.686E+00
  -1.224  0.685E+00  0.684E+00
  -1.214  0.682E+00  0.681E+00
  -1.204  0.678E+00  0.677E+00
  -1.194  0.673E+00  0.672E+00
  -1.184  0.668E+00  0.667E+00
  -1.174  0.663E+00  0.662E+00
  -1.164  0.658E+00  0.657E+00
  -1.154  0.653E+00  0.652E+00
  -1.144  0.648E+00  0.648E+00
  -1.134  0.645E+00  0.644E+00
  -1.124  0.642E+00  0.641E+00
  -1.114  0.640E+00  0.639E+00
  -1.104  0.640E+00  0.639E+00
  -1.094  0.641E+00  0.640E+00
  -1.084  0.643E+00  0.642E+00
  -1.074  0.647E+00  0.646E+00
  -1.064  0.652E+00  0.651E+00
  -1.054  0.657E+00  0.657E+00
  -1.044  0.664E+00  0.663E+00
  -1.034  0.672E+00  0.671E+00
  -1.024  0.680E+00  0.679E+00
  -1.014  0.688E+00  0.687E+00
  -1.004  0.696E+00  0.695E+00
  -0.994  0.704E+00  0.703E+00
  -0.984  0.712E+00  0.711E+00
  -0.974  0.719E+00  0.718E+00
  -0.964  0.725E+00  0.724E+00
  -0.954  0.731E+00  0.730E+00
  -0.944  0.736E+00  0.735E+00
  -0.934  0.739E+00  0.738E+00
  -0.924  0.742E+00  0.741E+00
  -0.914  0.744E+00  0.743E+00
  -0.904  0.746E+00  0.745E+00
  -0.894  0.747E+00  0.746E+00
  -0.884  0.747E+00  0.746E+00
  -0.874  0.746E+00  0.745E+00
  -0.864  0.745E+00  0.744E+00
  -0.854  0.744E+00  0.743E+00
  -0.844  0.743E+00  0.742E+00
  -0.834  0.741E+00  0.740E+00
  -0.824  0.739E+00  0.738E+00
  -0.814  0.737E+00  0.736E+00
  -0.804  0.735E+00  0.734E+00
  -0.794  0.733E+00  0.732E+00
  -0.784  0.732E+00  0.731E+00
  -0.774  0.730E+00  0.729E+00
  -0.764  0.729E+00  0.728E+00
  -0.754  0.728E+00  0.727E+00
  -0.744  0.728E+00  0.727E+00
  -0.734  0.728E+00  0.727E+00
  -0.724  0.728E+00  0.727E+00
  -0.714  0.729E+00  0.728E+00
  -0.704  0.730E+00  0.729E+00
  -0.694  0.731E+00  0.730E+00
  -0.684  0.733E+00  0.732E+00
  -0.674  0.735E+00  0.734E+00
  -0.664  0.737E+00  0.736E+00
  -0.654  0.739E+00  0.738E+00
  -0.644  0.741E+00  0.740E+00
  -0.634  0.743E+00  0.742E+00
  -0.624  0.744E+00  0.743E+00
  -0.614  0.746E+00  0.745E+00
  -0.604  0.748E+00  0.747E+00
  -0.594  0.749E+00  0.748E+00
  -0.584  0.751E+00  0.750E+00
  -0.574  0.752E+00  0.751E+00
  -0.564  0.754E+00  0.753E+00
  -0.554  0.756E+00  0.755E+00
  -0.544  0.758E+00  0.757E+00
  -0.534  0.760E+00  0.759E+00
  -0.524  0.763E+00  0.762E+00
  -0.514  0.766E+00  0.765E+00
  -0.504  0.769E+00  0.768E+00
  -0.494  0.773E+00  0.771E+00
  -0.484  0.776E+00  0.775E+00
  -0.474  0.780E+00  0.779E+00
  -0.464  0.785E+00  0.783E+00
  -0.454  0.789E+00  0.788E+00
  -0.444  0.793E+00  0.792E+00
  -0.434  0.797E+00  0.796E+00
  -0.424  0.801E+00  0.800E+00
  -0.414  0.805E+00  0.804E+00
  -0.404  0.809E+00  0.808E+00
  -0.394  0.813E+00  0.812E+00
  -0.384  0.816E+00  0.815E+00
  -0.374  0.819E+00  0.818E+00
  -0.364  0.822E+00  0.821E+00
  -0.354  0.825E+00  0.823E+00
  -0.344  0.827E+00  0.826E+00
  -0.334  0.829E+00  0.828E+00
  -0.324  0.831E+00  0.829E+00
  -0.314  0.832E+00  0.830E+00
  -0.304  0.833E+00  0.831E+00
  -0.294  0.833E+00  0.832E+00
  -0.284  0.833E+00  0.832E+00
  -0.274  0.833E+00  0.831E+00
  -0.264  0.832E+00  0.831E+00
  -0.254  0.831E+00  0.829E+00
  -0.244  0.829E+00  0.828E+00
  -0.234  0.827E+00  0.826E+00
  -0.224  0.825E+00  0.823E+00
  -0.214  0.822E+00  0.820E+00
  -0.204  0.818E+00  0.817E+00
  -0.194  0.815E+00  0.813E+00
  -0.184  0.811E+00  0.809E+00
  -0.174  0.807E+00  0.805E+00
  -0.164  0.803E+00  0.801E+00
  -0.154  0.798E+00  0.797E+00
  -0.144  0.794E+00  0.793E+00
  -0.134  0.790E+00  0.789E+00
  -0.124  0.787E+00  0.786E+00
  -0.114  0.784E+00  0.783E+00
  -0.104  0.782E+00  0.781E+00
  -0.094  0.781E+00  0.779E+00
  -0.084  0.780E+00  0.779E+00
  -0.074  0.781E+00  0.780E+00
  -0.064  0.783E+00  0.782E+00
  -0.054  0.787E+00  0.785E+00
  -0.044  0.792E+00  0.790E+00
  -0.034  0.798E+00  0.797E+00
  -0.024  0.806E+00  0.804E+00
  -0.014  0.815E+00  0.813E+00
  -0.004  0.825E+00  0.823E+00
   0.006  0.836E+00  0.834E+00
   0.016  0.847E+00  0.846E+00
   0.026  0.859E+00  0.858E+00
   0.036  0.871E+00  0.870E+00
   0.046  0.883E+00  0.881E+00
   0.056  0.894E+00  0.893E+00
   0.066  0.905E+00  0.903E+00
   0.076  0.914E+00  0.912E+00
   0.086  0.922E+00  0.921E+00
   0.096  0.929E+00  0.927E+00
   0.106  0.934E+00  0.933E+00
   0.116  0.938E+00  0.936E+00
   0.126  0.940E+00  0.938E+00
   0.136  0.940E+00  0.938E+00
   0.146  0.939E+00  0.937E+00
   0.156  0.936E+00  0.934E+00
   0.166  0.931E+00  0.929E+00
   0.176  0.926E+00  0.924E+00
   0.186  0.919E+00  0.917E+00
   0.196  0.911E+00  0.910E+00
   0.206  0.903E+00  0.901E+00
   0.216  0.895E+00  0.893E+00
   0.226  0.886E+00  0.884E+00
   0.236  0.878E+00  0.876E+00
   0.246  0.870E+00  0.868E+00
   0.256  0.862E+00  0.861E+00
   0.266  0.856E+00  0.854E+00
   0.276  0.850E+00  0.849E+00
   0.286  0.846E+00  0.844E+00
   0.296  0.843E+00  0.841E+00
   0.306  0.841E+00  0.839E+00
   0.316  0.841E+00  0.839E+00
   0.326  0.842E+00  0.840E+00
   0.336  0.844E+00  0.842E+00
   0.346  0.847E+00  0.845E+00
   0.356  0.850E+00  0.849E+00
   0.366  0.855E+00  0.853E+00
   0.376  0.860E+00  0.858E+00
   0.386  0.865E+00  0.863E+00
   0.396  0.871E+00  0.869E+00
   0.406  0.876E+00  0.874E+00
   0.416  0.881E+00  0.880E+00
   0.426  0.887E+00  0.885E+00
   0.436  0.892E+00  0.890E+00
   0.446  0.896E+00  0.894E+00
   0.456  0.901E+00  0.899E+00
   0.466  0.905E+00  0.903E+00
   0.476  0.910E+00  0.908E+00
   0.486  0.914E+00  0.912E+00
   0.496  0.918E+00  0.916E+00
   0.506  0.923E+00  0.921E+00
   0.516  0.927E+00  0.925E+00
   0.526  0.932E+00  0.930E+00
   0.536  0.936E+00  0.934E+00
   0.546  0.940E+00  0.938E+00
   0.556  0.944E+00  0.942E+00
   0.566  0.948E+00  0.946E+00
   0.576  0.951E+00  0.949E+00
   0.586  0.953E+00  0.951E+00
   0.596  0.955E+00  0.952E+00
   0.606  0.956E+00  0.953E+00
   0.616  0.956E+00  0.953E+00
   0.626  0.955E+00  0.953E+00
   0.636  0.953E+00  0.951E+00
   0.646  0.951E+00  0.949E+00
   0.656  0.949E+00  0.947E+00
   0.666  0.947E+00  0.944E+00
   0.676  0.944E+00  0.942E+00
   0.686  0.942E+00  0.940E+00
   0.696  0.941E+00  0.938E+00
   0.706  0.940E+00  0.937E+00
   0.716  0.940E+00  0.937E+00
   0.726  0.941E+00  0.938E+00
   0.736  0.943E+00  0.940E+00
   0.746  0.945E+00  0.943E+00
   0.756  0.949E+00  0.947E+00
   0.766  0.954E+00  0.952E+00
   0.776  0.960E+00  0.957E+00
   0.786  0.966E+00  0.963E+00
   0.796  0.972E+00  0.969E+00
   0.806  0.978E+00  0.975E+00
   0.816  0.984E+00  0.981E+00
   0.826  0.989E+00  0.986E+00
   0.836  0.994E+00  0.991E+00
   0.846  0.997E+00  0.995E+00
   0.856  0.100E+01  0.997E+00
   0.866  0.100E+01  0.998E+00
   0.876  0.100E+01  0.998E+00
   0.886  0.999E+00  0.996E+00
   0.896  0.996E+00  0.993E+00
   0.906  0.992E+00  0.989E+00
   0.916  0.986E+00  0.984E+00
   0.926  0.980E+00  0.977E+00
   0.936  0.973E+00  0.970E+00
   0.946  0.965E+00  0.962E+00
   0.956  0.957E+00  0.954E+00
   0.966  0.949E+00  0.946E+00
   0.976  0.941E+00  0.939E+00
   0.986  0.934E+00  0.932E+00
   0.996  0.929E+00  0.926E+00
   1.006  0.924E+00  0.922E+00
   1.016  0.921E+00  0.918E+00
   1.026  0.919E+00  0.917E+00
   1.036  0.919E+00  0.917E+00
   1.046  0.921E+00  0.919E+00
   1.056  0.924E+00  0.922E+00
   1.066  0.929E+00  0.927E+00
   1.076  0.935E+00  0.933E+00
   1.086  0.942E+00  0.939E+00
   1.096  0.950E+00  0.947E+00
   1.106  0.958E+00  0.955E+00
   1.116  0.966E+00  0.963E+00
   1.126  0.974E+00  0.971E+00
   1.136  0.982E+00  0.979E+00
   1.146  0.990E+00  0.987E+00
   1.156  0.996E+00  0.993E+00
   1.166  0.100E+01  0.100E+01
   1.176  0.101E+01  0.101E+01
   1.186  0.101E+01  0.101E+01
   1.196  0.102E+01  0.101E+01
   1.206  0.102E+01  0.102E+01
   1.216  0.103E+01  0.102E+01
   1.226  0.103E+01  0.103E+01
   1.236  0.103E+01  0.103E+01
   1.246  0.104E+01  0.103E+01
   1.256  0.104E+01  0.104E+01
   1.266  0.105E+01  0.104E+01
   1.276  0.105E+01  0.105E+01
   1.286  0.106E+01  0.105E+01
   1.296  0.106E+01  0.106E+01
   1.306  0.107E+01  0.106E+01
   1.316  0.107E+01  0.107E+01
   1.326  0.108E+01  0.107E+01
   1.336  0.108E+01  0.108E+01
   1.346  0.109E+01  0.108E+01
   1.356  0.109E+01  0.109E+01
   1.366  0.109E+01  0.109E+01
   1.376  0.110E+01  0.109E+01
   1.386  0.110E+01  0.109E+01
   1.396  0.109E+01  0.109E+01
   1.406  0.109E+01  0.109E+01
   1.416  0.109E+01  0.109E+01
   1.426  0.108E+01  0.108E+01
   1.436  0.108E+01  0.107E+01
   1.446  0.107E+01  0.107E+01
   1.456  0.106E+01  0.106E+01
   1.466  0.105E+01  0.105E+01
   1.476  0.104E+01  0.104E+01
   1.486  0.103E+01  0.103E+01
   1.496  0.102E+01  0.102E+01
   1.506  0.101E+01  0.101E+01
   1.516  0.100E+01  0.998E+00
   1.526  0.993E+00  0.989E+00
   1.536  0.985E+00  0.982E+00
   1.546  0.979E+00  0.976E+00
   1.556  0.974E+00  0.971E+00
   1.566  0.971E+00  0.968E+00
   1.576  0.969E+00  0.966E+00
   1.586  0.969E+00  0.966E+00
   1.596  0.971E+00  0.967E+00
   1.606  0.974E+00  0.970E+00
   1.616  0.978E+00  0.974E+00
   1.626  0.983E+00  0.979E+00
   1.636  0.989E+00  0.985E+00
   1.646  0.995E+00  0.992E+00
   1.656  0.100E+01  0.999E+00
   1.666  0.101E+01  0.101E+01
   1.676  0.102E+01  0.101E+01
   1.686  0.103E+01  0.102E+01
   1.696  0.103E+01  0.103E+01
   1.706  0.104E+01  0.104E+01
   1.716  0.105E+01  0.105E+01
   1.726  0.106E+01  0.105E+01
   1.736  0.106E+01  0.106E+01
   1.746  0.107E+01  0.107E+01
   1.756  0.108E+01  0.108E+01
   1.766  0.109E+01  0.108E+01
   1.776  0.110E+01  0.109E+01
   1.786  0.110E+01  0.110E+01
   1.796  0.111E+01  0.111E+01
   1.806  0.112E+01  0.111E+01
   1.816  0.113E+01  0.112E+01
   1.826  0.113E+01  0.113E+01
   1.836  0.114E+01  0.113E+01
   1.846  0.115E+01  0.114E+01
   1.856  0.115E+01  0.115E+01
   1.866  0.116E+01  0.115E+01
   1.876  0.116E+01  0.115E+01
   1.886  0.116E+01  0.116E+01
   1.896  0.116E+01  0.116E+01
   1.906  0.116E+01  0.116E+01
   1.916  0.116E+01  0.116E+01
   1.926  0.116E+01  0.116E+01
   1.936  0.116E+01  0.115E+01
   1.946  0.116E+01  0.115E+01
   1.956  0.115E+01  0.115E+01
   1.966  0.114E+01  0.114E+01
   1.976  0.114E+01  0.113E+01
   1.986  0.113E+01  0.112E+01
   1.996  0.112E+01  0.111E+01
   2.006  0.111E+01  0.111E+01
   2.016  0.110E+01  0.110E+01
   2.026  0.109E+01  0.109E+01
   2.036  0.108E+01  0.108E+01
   2.046  0.107E+01  0.107E+01
   2.056  0.107E+01  0.106E+01
   2.066  0.106E+01  0.106E+01
   2.076  0.106E+01  0.105E+01
   2.086  0.106E+01  0.105E+01
   2.096  0.106E+01  0.105E+01
   2.106  0.106E+01  0.105E+01
   2.116  0.106E+01  0.105E+01
   2.126  0.106E+01  0.106E+01
   2.136  0.107E+01  0.107E+01
   2.146  0.108E+01  0.107E+01
   2.156  0.109E+01  0.108E+01
   2.166  0.109E+01  0.109E+01
   2.176  0.110E+01  0.110E+01
   2.186  0.111E+01  0.111E+01
   2.196  0.112E+01  0.112E+01
   2.206  0.113E+01  0.113E+01
   2.216  0.114E+01  0.114E+01
   2.226  0.115E+01  0.114E+01
   2.236  0.116E+01  0.115E+01
   2.246  0.116E+01  0.116E+01
   2.256  0.116E+01  0.116E+01
   2.266  0.117E+01  0.116E+01
   2.276  0.117E+01  0.116E+01
   2.286  0.117E+01  0.116E+01
   2.296  0.116E+01  0.116E+01
   2.306  0.116E+01  0.116E+01
   2.316  0.116E+01  0.115E+01
   2.326  0.115E+01  0.115E+01
   2.336  0.114E+01  0.114E+01
   2.346  0.114E+01  0.113E+01
   2.356  0.113E+01  0.113E+01
   2.366  0.112E+01  0.112E+01
   2.376  0.112E+01  0.111E+01
   2.386  0.111E+01  0.111E+01
   2.396  0.111E+01  0.110E+01
   2.406  0.110E+01  0.110E+01
   2.416  0.110E+01  0.110E+01
   2.426  0.110E+01  0.109E+01
   2.436  0.110E+01  0.109E+01
   2.446  0.110E+01  0.110E+01
   2.456  0.110E+01  0.110E+01
   2.466  0.111E+01  0.110E+01
   2.476  0.111E+01  0.111E+01
   2.486  0.112E+01  0.111E+01
   2.496  0.113E+01  0.112E+01
   2.506  0.113E+01  0.113E+01
   2.516  0.114E+01  0.114E+01
   2.526  0.115E+01  0.114E+01
   2.536  0.116E+01  0.115E+01
   2.546  0.116E+01  0.116E+01
   2.556  0.117E+01  0.117E+01
   2.566  0.118E+01  0.117E+01
   2.576  0.119E+01  0.118E+01
   2.586  0.119E+01  0.119E+01
   2.596  0.120E+01  0.119E+01
   2.606  0.121E+01  0.120E+01
   2.616  0.121E+01  0.121E+01
   2.626  0.122E+01  0.121E+01
   2.636  0.123E+01  0.122E+01
   2.646  0.123E+01  0.123E+01
   2.656  0.124E+01  0.123E+01
   2.666  0.124E+01  0.124E+01
   2.676  0.125E+01  0.124E+01
   2.686  0.125E+01  0.125E+01
   2.696  0.126E+01  0.125E+01
   2.706  0.126E+01  0.125E+01
   2.716  0.126E+01  0.126E+01
   2.726  0.126E+01  0.126E+01
   2.736  0.126E+01  0.126E+01
   2.746  0.126E+01  0.125E+01
   2.756  0.126E+01  0.125E+01
   2.766  0.126E+01  0.125E+01
   2.776  0.125E+01  0.124E+01
   2.786  0.125E+01  0.124E+01
   2.796  0.124E+01  0.123E+01
   2.806  0.123E+01  0.122E+01
   2.816  0.122E+01  0.122E+01
   2.826  0.122E+01  0.121E+01
   2.836  0.121E+01  0.120E+01
   2.846  0.120E+01  0.120E+01
   2.856  0.120E+01  0.119E+01
   2.866  0.119E+01  0.118E+01
   2.876  0.118E+01  0.118E+01
   2.886  0.118E+01  0.117E+01
   2.896  0.117E+01  0.116E+01
   2.906  0.117E+01  0.116E+01
   2.916  0.116E+01  0.116E+01
   2.926  0.116E+01  0.115E+01
   2.936  0.116E+01  0.115E+01
   2.946  0.115E+01  0.115E+01
   2.956  0.115E+01  0.114E+01
   2.966  0.115E+01  0.114E+01
   2.976  0.115E+01  0.114E+01
   2.986  0.114E+01  0.114E+01
   2.996  0.114E+01  0.114E+01
   3.006  0.114E+01  0.114E+01
   3.016  0.114E+01  0.114E+01
   3.026  0.114E+01  0.114E+01
   3.036  0.114E+01  0.114E+01
   3.046  0.114E+01  0.114E+01
   3.056  0.115E+01  0.114E+01
   3.066  0.115E+01  0.114E+01
   3.076  0.115E+01  0.115E+01
   3.086  0.116E+01  0.115E+01
   3.096  0.117E+01  0.116E+01
   3.106  0.118E+01  0.117E+01
   3.116  0.118E+01  0.118E+01
   3.126  0.120E+01  0.119E+01
   3.136  0.121E+01  0.120E+01
   3.146  0.122E+01  0.121E+01
   3.156  0.123E+01  0.123E+01
   3.166  0.125E+01  0.124E+01
   3.176  0.126E+01  0.125E+01
   3.186  0.128E+01  0.127E+01
   3.196  0.129E+01  0.128E+01
   3.206  0.131E+01  0.130E+01
   3.216  0.132E+01  0.131E+01
   3.226  0.133E+01  0.132E+01
   3.236  0.134E+01  0.134E+01
   3.246  0.135E+01  0.135E+01
   3.256  0.136E+01  0.135E+01
   3.266  0.137E+01  0.136E+01
   3.276  0.137E+01  0.137E+01
   3.286  0.138E+01  0.137E+01
   3.296  0.138E+01  0.137E+01
   3.306  0.138E+01  0.137E+01
   3.316  0.137E+01  0.136E+01
   3.326  0.137E+01  0.136E+01
   3.336  0.136E+01  0.135E+01
   3.346  0.135E+01  0.135E+01
   3.356  0.135E+01  0.134E+01
   3.366  0.134E+01  0.133E+01
   3.376  0.133E+01  0.132E+01
   3.386  0.131E+01  0.131E+01
   3.396  0.130E+01  0.129E+01
   3.406  0.129E+01  0.128E+01
   3.416  0.128E+01  0.127E+01
   3.426  0.127E+01  0.126E+01
   3.436  0.126E+01  0.125E+01
   3.446  0.126E+01  0.125E+01
   3.456  0.125E+01  0.124E+01
   3.466  0.124E+01  0.123E+01
   3.476  0.124E+01  0.123E+01
   3.486  0.124E+01  0.123E+01
   3.496  0.123E+01  0.123E+01
   3.506  0.123E+01  0.122E+01
   3.516  0.123E+01  0.122E+01
   3.526  0.123E+01  0.122E+01
   3.536  0.123E+01  0.122E+01
   3.546  0.123E+01  0.122E+01
   3.556  0.123E+01  0.123E+01
   3.566  0.123E+01  0.123E+01
   3.576  0.124E+01  0.123E+01
   3.586  0.124E+01  0.123E+01
   3.596  0.124E+01  0.123E+01
   3.606  0.124E+01  0.123E+01
   3.616  0.124E+01  0.123E+01
   3.626  0.124E+01  0.123E+01
   3.636  0.124E+01  0.123E+01
   3.646  0.123E+01  0.123E+01
   3.656  0.123E+01  0.122E+01
   3.666  0.123E+01  0.122E+01
   3.676  0.123E+01  0.122E+01
   3.686  0.123E+01  0.122E+01
   3.696  0.123E+01  0.122E+01
   3.706  0.123E+01  0.122E+01
   3.716  0.123E+01  0.122E+01
   3.726  0.124E+01  0.123E+01
   3.736  0.124E+01  0.123E+01
   3.746  0.124E+01  0.123E+01
   3.756  0.124E+01  0.123E+01
   3.766  0.125E+01  0.124E+01
   3.776  0.125E+01  0.124E+01
   3.786  0.126E+01  0.125E+01
   3.796  0.127E+01  0.126E+01
   3.806  0.128E+01  0.127E+01
   3.816  0.129E+01  0.127E+01
   3.826  0.130E+01  0.128E+01
   3.836  0.131E+01  0.130E+01
   3.846  0.132E+01  0.131E+01
   3.856  0.133E+01  0.132E+01
   3.866  0.134E+01  0.133E+01
   3.876  0.135E+01  0.134E+01
   3.886  0.136E+01  0.135E+01
   3.896  0.137E+01  0.136E+01
   3.906  0.138E+01  0.137E+01
   3.916  0.139E+01  0.138E+01
   3.926  0.139E+01  0.138E+01
   3.936  0.140E+01  0.139E+01
   3.946  0.140E+01  0.139E+01
   3.956  0.140E+01  0.139E+01
   3.966  0.140E+01  0.139E+01
   3.976  0.140E+01  0.139E+01
   3.986  0.140E+01  0.139E+01
   3.996  0.140E+01  0.138E+01
   4.006  0.139E+01  0.138E+01
   4.016  0.138E+01  0.137E+01
   4.026  0.138E+01  0.136E+01
   4.036  0.137E+01  0.136E+01
   4.046  0.136E+01  0.135E+01
   4.056  0.135E+01  0.134E+01
   4.066  0.134E+01  0.133E+01
   4.076  0.133E+01  0.132E+01
   4.086  0.133E+01  0.131E+01
   4.096  0.132E+01  0.130E+01
   4.106  0.131E+01  0.130E+01
   4.116  0.130E+01  0.129E+01
   4.126  0.130E+01  0.129E+01
   4.136  0.130E+01  0.128E+01
   4.146  0.129E+01  0.128E+01
   4.156  0.129E+01  0.128E+01
   4.166  0.130E+01  0.128E+01
   4.176  0.130E+01  0.129E+01
   4.186  0.130E+01  0.129E+01
   4.196  0.131E+01  0.130E+01
   4.206  0.132E+01  0.130E+01
   4.216  0.133E+01  0.131E+01
   4.226  0.133E+01  0.132E+01
   4.236  0.134E+01  0.133E+01
   4.246  0.135E+01  0.134E+01
   4.256  0.136E+01  0.135E+01
   4.266  0.137E+01  0.136E+01
   4.276  0.138E+01  0.136E+01
   4.286  0.139E+01  0.137E+01
   4.296  0.139E+01  0.138E+01
   4.306  0.140E+01  0.138E+01
   4.316  0.140E+01  0.139E+01
   4.326  0.141E+01  0.139E+01
   4.336  0.141E+01  0.140E+01
   4.346  0.141E+01  0.140E+01
   4.356  0.141E+01  0.140E+01
   4.366  0.142E+01  0.140E+01
   4.376  0.142E+01  0.140E+01
   4.386  0.141E+01  0.140E+01
   4.396  0.141E+01  0.140E+01
   4.406  0.141E+01  0.140E+01
   4.416  0.141E+01  0.139E+01
   4.426  0.141E+01  0.139E+01
   4.436  0.140E+01  0.139E+01
   4.446  0.140E+01  0.139E+01
   4.456  0.140E+01  0.138E+01
   4.466  0.140E+01  0.138E+01
   4.476  0.139E+01  0.138E+01
   4.486  0.139E+01  0.137E+01
   4.496  0.138E+01  0.137E+01
   4.506  0.138E+01  0.137E+01
   4.516  0.138E+01  0.136E+01
   4.526  0.138E+01  0.136E+01
   4.536  0.137E+01  0.136E+01
   4.546  0.137E+01  0.136E+01
   4.556  0.137E+01  0.135E+01
   4.566  0.137E+01  0.135E+01
   4.576  0.137E+01  0.135E+01
   4.586  0.137E+01  0.135E+01
   4.596  0.137E+01  0.135E+01
   4.606  0.136E+01  0.135E+01
   4.616  0.136E+01  0.135E+01
   4.626  0.136E+01  0.135E+01
   4.636  0.136E+01  0.135E+01
   4.646  0.137E+01  0.135E+01
   4.656  0.137E+01  0.135E+01
   4.666  0.137E+01  0.135E+01
   4.676  0.137E+01  0.135E+01
   4.686  0.137E+01  0.136E+01
   4.696  0.138E+01  0.136E+01
   4.706  0.138E+01  0.137E+01
   4.716  0.139E+01  0.137E+01
   4.726  0.140E+01  0.138E+01
   4.736  0.141E+01  0.139E+01
   4.746  0.142E+01  0.140E+01
   4.756  0.143E+01  0.141E+01
   4.766  0.144E+01  0.142E+01
   4.776  0.145E+01  0.143E+01
   4.786  0.147E+01  0.145E+01
   4.796  0.148E+01  0.146E+01
   4.806  0.150E+01  0.148E+01
   4.816  0.151E+01  0.149E+01
   4.826  0.153E+01  0.151E+01
   4.836  0.154E+01  0.152E+01
   4.846  0.156E+01  0.154E+01
   4.856  0.157E+01  0.155E+01
   4.866  0.159E+01  0.157E+01
   4.876  0.160E+01  0.158E+01
   4.886  0.161E+01  0.159E+01
   4.896  0.161E+01  0.159E+01
   4.906  0.162E+01  0.160E+01
   4.916  0.162E+01  0.160E+01
   4.926  0.162E+01  0.160E+01
   4.936  0.162E+01  0.160E+01
   4.946  0.162E+01  0.160E+01
   4.956  0.161E+01  0.159E+01
   4.966  0.160E+01  0.158E+01
   4.976  0.159E+01  0.157E+01
   4.986  0.158E+01  0.156E+01
   4.996  0.157E+01  0.155E+01
   5.006  0.155E+01  0.153E+01
   5.016  0.154E+01  0.152E+01
   5.026  0.153E+01  0.151E+01
   5.036  0.151E+01  0.149E+01
   5.046  0.150E+01  0.148E+01
   5.056  0.149E+01  0.147E+01
   5.066  0.147E+01  0.146E+01
   5.076  0.146E+01  0.145E+01
   5.086  0.145E+01  0.144E+01
   5.096  0.145E+01  0.143E+01
   5.106  0.144E+01  0.142E+01
   5.116  0.143E+01  0.141E+01
   5.126  0.143E+01  0.141E+01
   5.136  0.142E+01  0.141E+01
   5.146  0.142E+01  0.140E+01
   5.156  0.142E+01  0.140E+01
   5.166  0.142E+01  0.140E+01
   5.176  0.142E+01  0.141E+01
   5.186  0.143E+01  0.141E+01
   5.196  0.143E+01  0.141E+01
   5.206  0.144E+01  0.142E+01
   5.216  0.145E+01  0.143E+01
   5.226  0.146E+01  0.144E+01
   5.236  0.148E+01  0.146E+01
   5.246  0.149E+01  0.147E+01
   5.256  0.151E+01  0.149E+01
   5.266  0.152E+01  0.150E+01
   5.276  0.154E+01  0.152E+01
   5.286  0.155E+01  0.153E+01
   5.296  0.157E+01  0.155E+01
   5.306  0.159E+01  0.156E+01
   5.316  0.160E+01  0.158E+01
   5.326  0.161E+01  0.159E+01
   5.336  0.162E+01  0.159E+01
   5.346  0.162E+01  0.160E+01
   5.356  0.162E+01  0.160E+01
   5.366  0.162E+01  0.160E+01
   5.376  0.161E+01  0.159E+01
   5.386  0.161E+01  0.158E+01
   5.396  0.159E+01  0.157E+01
   5.406  0.158E+01  0.156E+01
   5.416  0.156E+01  0.154E+01
   5.426  0.154E+01  0.152E+01
   5.436  0.152E+01  0.150E+01
   5.446  0.150E+01  0.148E+01
   5.456  0.147E+01  0.145E+01
   5.466  0.145E+01  0.143E+01
   5.476  0.143E+01  0.141E+01
   5.486  0.142E+01  0.140E+01
   5.496  0.140E+01  0.138E+01
   5.506  0.139E+01  0.137E+01
   5.516  0.139E+01  0.137E+01
   5.526  0.138E+01  0.136E+01
   5.536  0.138E+01  0.136E+01
   5.546  0.139E+01  0.137E+01
   5.556  0.140E+01  0.138E+01
   5.566  0.141E+01  0.139E+01
   5.576  0.142E+01  0.140E+01
   5.586  0.144E+01  0.142E+01
   5.596  0.145E+01  0.143E+01
   5.606  0.147E+01  0.145E+01
   5.616  0.149E+01  0.147E+01
   5.626  0.150E+01  0.148E+01
   5.636  0.152E+01  0.149E+01
   5.646  0.153E+01  0.151E+01
   5.656  0.154E+01  0.151E+01
   5.666  0.154E+01  0.152E+01
   5.676  0.155E+01  0.152E+01
   5.686  0.154E+01  0.152E+01
   5.696  0.154E+01  0.152E+01
   5.706  0.153E+01  0.151E+01
   5.716  0.152E+01  0.150E+01
   5.726  0.150E+01  0.148E+01
   5.736  0.149E+01  0.146E+01
   5.746  0.147E+01  0.145E+01
   5.756  0.145E+01  0.143E+01
   5.766  0.143E+01  0.141E+01
   5.776  0.141E+01  0.139E+01
   5.786  0.140E+01  0.137E+01
   5.796  0.138E+01  0.136E+01
   5.806  0.136E+01  0.134E+01
   5.816  0.135E+01  0.133E+01
   5.826  0.134E+01  0.132E+01
   5.836  0.134E+01  0.131E+01
   5.846  0.133E+01  0.131E+01
   5.856  0.133E+01  0.131E+01
   5.866  0.133E+01  0.131E+01
   5.876  0.134E+01  0.132E+01
   5.886  0.135E+01  0.132E+01
   5.896  0.136E+01  0.133E+01
   5.906  0.137E+01  0.134E+01
   5.916  0.138E+01  0.136E+01
   5.926  0.139E+01  0.137E+01
   5.936  0.141E+01  0.138E+01
   5.946  0.142E+01  0.139E+01
   5.956  0.143E+01  0.140E+01
   5.966  0.144E+01  0.141E+01
   5.976  0.145E+01  0.142E+01
   5.986  0.145E+01  0.143E+01
   5.996  0.146E+01  0.143E+01
   6.006  0.146E+01  0.143E+01
   6.016  0.145E+01  0.143E+01
   6.026  0.145E+01  0.143E+01
   6.036  0.144E+01  0.142E+01
   6.046  0.144E+01  0.141E+01
   6.056  0.143E+01  0.140E+01
   6.066  0.142E+01  0.139E+01
   6.076  0.141E+01  0.138E+01
   6.086  0.140E+01  0.137E+01
   6.096  0.139E+01  0.136E+01
   6.106  0.138E+01  0.135E+01
   6.116  0.137E+01  0.134E+01
   6.126  0.136E+01  0.133E+01
   6.136  0.135E+01  0.133E+01
   6.146  0.135E+01  0.132E+01
   6.156  0.134E+01  0.132E+01
   6.166  0.134E+01  0.132E+01
   6.176  0.134E+01  0.132E+01
   6.186  0.135E+01  0.132E+01
   6.196  0.135E+01  0.133E+01
   6.206  0.136E+01  0.134E+01
   6.216  0.137E+01  0.135E+01
   6.226  0.138E+01  0.136E+01
   6.236  0.140E+01  0.137E+01
   6.246  0.141E+01  0.138E+01
   6.256  0.142E+01  0.139E+01
   6.266  0.144E+01  0.141E+01
   6.276  0.145E+01  0.142E+01
   6.286  0.146E+01  0.143E+01
   6.296  0.147E+01  0.144E+01
   6.306  0.148E+01  0.145E+01
   6.316  0.149E+01  0.146E+01
   6.326  0.149E+01  0.146E+01
   6.336  0.150E+01  0.146E+01
   6.346  0.150E+01  0.146E+01
   6.356  0.149E+01  0.145E+01
   6.366  0.149E+01  0.145E+01
   6.376  0.148E+01  0.144E+01
   6.386  0.147E+01  0.143E+01
   6.396  0.146E+01  0.142E+01
   6.406  0.144E+01  0.141E+01
   6.416  0.143E+01  0.139E+01
   6.426  0.142E+01  0.138E+01
   6.436  0.141E+01  0.137E+01
   6.446  0.139E+01  0.135E+01
   6.456  0.138E+01  0.134E+01
   6.466  0.137E+01  0.133E+01
   6.476  0.137E+01  0.133E+01
   6.486  0.136E+01  0.132E+01
   6.496  0.136E+01  0.132E+01
   6.506  0.136E+01  0.132E+01
   6.516  0.136E+01  0.132E+01
   6.526  0.136E+01  0.132E+01
   6.536  0.136E+01  0.132E+01
   6.546  0.137E+01  0.133E+01
   6.556  0.138E+01  0.134E+01
   6.566  0.138E+01  0.134E+01
   6.576  0.139E+01  0.135E+01
   6.586  0.140E+01  0.136E+01
   6.596  0.141E+01  0.137E+01
   6.606  0.142E+01  0.138E+01
   6.616  0.143E+01  0.139E+01
   6.626  0.144E+01  0.140E+01
   6.636  0.145E+01  0.141E+01
   6.646  0.146E+01  0.142E+01
   6.656  0.147E+01  0.142E+01
   6.666  0.148E+01  0.143E+01
   6.676  0.149E+01  0.144E+01
   6.686  0.150E+01  0.145E+01
   6.696  0.151E+01  0.146E+01
   6.706  0.152E+01  0.147E+01
   6.716  0.153E+01  0.148E+01
   6.726  0.154E+01  0.149E+01
   6.736  0.155E+01  0.150E+01
   6.746  0.157E+01  0.151E+01
   6.756  0.158E+01  0.152E+01
   6.766  0.159E+01  0.153E+01
   6.776  0.159E+01  0.154E+01
   6.786  0.160E+01  0.154E+01
   6.796  0.161E+01  0.155E+01
   6.806  0.161E+01  0.155E+01
   6.816  0.161E+01  0.155E+01
   6.826  0.162E+01  0.155E+01
   6.836  0.162E+01  0.155E+01
   6.846  0.161E+01  0.155E+01
   6.856  0.161E+01  0.154E+01
   6.866  0.161E+01  0.154E+01
   6.876  0.160E+01  0.154E+01
   6.886  0.160E+01  0.153E+01
   6.896  0.159E+01  0.153E+01
   6.906  0.159E+01  0.152E+01
   6.916  0.159E+01  0.152E+01
   6.926  0.159E+01  0.152E+01
   6.936  0.159E+01  0.152E+01
   6.946  0.159E+01  0.152E+01
   6.956  0.159E+01  0.152E+01
   6.966  0.160E+01  0.153E+01
   6.976  0.160E+01  0.153E+01
   6.986  0.160E+01  0.154E+01
   6.996  0.161E+01  0.154E+01
   7.006  0.161E+01  0.154E+01
   7.016  0.162E+01  0.155E+01
   7.026  0.162E+01  0.155E+01
   7.036  0.162E+01  0.155E+01
   7.046  0.162E+01  0.155E+01
   7.056  0.162E+01  0.155E+01
   7.066  0.162E+01  0.155E+01
   7.076  0.161E+01  0.155E+01
   7.086  0.161E+01  0.154E+01
   7.096  0.160E+01  0.153E+01
   7.106  0.159E+01  0.152E+01
   7.116  0.158E+01  0.151E+01
   7.126  0.157E+01  0.150E+01
   7.136  0.156E+01  0.149E+01
   7.146  0.155E+01  0.148E+01
   7.156  0.154E+01  0.147E+01
   7.166  0.153E+01  0.146E+01
   7.176  0.151E+01  0.145E+01
   7.186  0.150E+01  0.144E+01
   7.196  0.150E+01  0.143E+01
   7.206  0.149E+01  0.143E+01
   7.216  0.148E+01  0.142E+01
   7.226  0.148E+01  0.142E+01
   7.236  0.147E+01  0.141E+01
   7.246  0.147E+01  0.141E+01
   7.256  0.147E+01  0.141E+01
   7.266  0.147E+01  0.141E+01
   7.276  0.147E+01  0.141E+01
   7.286  0.148E+01  0.141E+01
   7.296  0.148E+01  0.142E+01
   7.306  0.149E+01  0.142E+01
   7.316  0.149E+01  0.143E+01
   7.326  0.150E+01  0.143E+01
   7.336  0.150E+01  0.144E+01
   7.346  0.151E+01  0.145E+01
   7.356  0.151E+01  0.145E+01
   7.366  0.152E+01  0.146E+01
   7.376  0.152E+01  0.146E+01
   7.386  0.153E+01  0.146E+01
   7.396  0.153E+01  0.147E+01
   7.406  0.154E+01  0.147E+01
   7.416  0.154E+01  0.147E+01
   7.426  0.154E+01  0.147E+01
   7.436  0.154E+01  0.147E+01
   7.446  0.154E+01  0.147E+01
   7.456  0.154E+01  0.147E+01
   7.466  0.154E+01  0.147E+01
   7.476  0.153E+01  0.147E+01
   7.486  0.153E+01  0.146E+01
   7.496  0.153E+01  0.146E+01
   7.506  0.152E+01  0.146E+01
   7.516  0.152E+01  0.145E+01
   7.526  0.152E+01  0.145E+01
   7.536  0.151E+01  0.144E+01
   7.546  0.151E+01  0.144E+01
   7.556  0.150E+01  0.143E+01
   7.566  0.150E+01  0.143E+01
   7.576  0.150E+01  0.143E+01
   7.586  0.150E+01  0.143E+01
   7.596  0.150E+01  0.142E+01
   7.606  0.150E+01  0.142E+01
   7.616  0.150E+01  0.142E+01
   7.626  0.150E+01  0.143E+01
   7.636  0.151E+01  0.143E+01
   7.646  0.151E+01  0.143E+01
   7.656  0.151E+01  0.143E+01
   7.666  0.152E+01  0.144E+01
   7.676  0.152E+01  0.144E+01
   7.686  0.153E+01  0.144E+01
   7.696  0.153E+01  0.145E+01
   7.706  0.153E+01  0.145E+01
   7.716  0.154E+01  0.145E+01
   7.726  0.154E+01  0.145E+01
   7.736  0.154E+01  0.146E+01
   7.746  0.154E+01  0.146E+01
   7.756  0.155E+01  0.146E+01
   7.766  0.155E+01  0.146E+01
   7.776  0.155E+01  0.146E+01
   7.786  0.155E+01  0.146E+01
   7.796  0.155E+01  0.145E+01
   7.806  0.155E+01  0.145E+01
   7.816  0.155E+01  0.145E+01
   7.826  0.155E+01  0.145E+01
   7.836  0.155E+01  0.146E+01
   7.846  0.155E+01  0.146E+01
   7.856  0.155E+01  0.146E+01
   7.866  0.156E+01  0.147E+01
   7.876  0.157E+01  0.147E+01
   7.886  0.158E+01  0.148E+01
   7.896  0.159E+01  0.149E+01
   7.906  0.160E+01  0.150E+01
   7.916  0.161E+01  0.151E+01
   7.926  0.163E+01  0.153E+01
   7.936  0.164E+01  0.154E+01
   7.946  0.166E+01  0.156E+01
   7.956  0.168E+01  0.158E+01
   7.966  0.170E+01  0.160E+01
   7.976  0.172E+01  0.161E+01
   7.986  0.174E+01  0.163E+01
   7.996  0.176E+01  0.165E+01
   8.006  0.177E+01  0.167E+01
   8.016  0.179E+01  0.168E+01
   8.026  0.180E+01  0.170E+01
   8.036  0.182E+01  0.171E+01
   8.046  0.183E+01  0.172E+01
   8.056  0.183E+01  0.173E+01
   8.066  0.184E+01  0.173E+01
   8.076  0.184E+01  0.173E+01
   8.086  0.184E+01  0.173E+01
   8.096  0.184E+01  0.173E+01
   8.106  0.183E+01  0.173E+01
   8.116  0.182E+01  0.172E+01
   8.126  0.181E+01  0.171E+01
   8.136  0.180E+01  0.169E+01
   8.146  0.178E+01  0.168E+01
   8.156  0.176E+01  0.166E+01
   8.166  0.174E+01  0.164E+01
   8.176  0.172E+01  0.162E+01
   8.186  0.170E+01  0.160E+01
   8.196  0.167E+01  0.158E+01
   8.206  0.165E+01  0.156E+01
   8.216  0.163E+01  0.154E+01
   8.226  0.160E+01  0.151E+01
   8.236  0.158E+01  0.149E+01
   8.246  0.156E+01  0.147E+01
   8.256  0.154E+01  0.146E+01
   8.266  0.153E+01  0.144E+01
   8.276  0.151E+01  0.142E+01
   8.286  0.150E+01  0.141E+01
   8.296  0.149E+01  0.140E+01
   8.306  0.148E+01  0.139E+01
   8.316  0.147E+01  0.139E+01
   8.326  0.146E+01  0.138E+01
   8.336  0.146E+01  0.138E+01
   8.346  0.146E+01  0.137E+01
   8.356  0.146E+01  0.137E+01
   8.366  0.146E+01  0.137E+01
   8.376  0.146E+01  0.137E+01
   8.386  0.146E+01  0.138E+01
   8.396  0.147E+01  0.138E+01
   8.406  0.147E+01  0.138E+01
   8.416  0.148E+01  0.139E+01
   8.426  0.149E+01  0.139E+01
   8.436  0.149E+01  0.140E+01
   8.446  0.150E+01  0.140E+01
   8.456  0.151E+01  0.141E+01
   8.466  0.152E+01  0.142E+01
   8.476  0.154E+01  0.143E+01
   8.486  0.155E+01  0.144E+01
   8.496  0.156E+01  0.145E+01
   8.506  0.158E+01  0.147E+01
   8.516  0.159E+01  0.148E+01
   8.526  0.161E+01  0.149E+01
   8.536  0.163E+01  0.151E+01
   8.546  0.165E+01  0.152E+01
   8.556  0.167E+01  0.154E+01
   8.566  0.169E+01  0.156E+01
   8.576  0.171E+01  0.158E+01
   8.586  0.173E+01  0.160E+01
   8.596  0.175E+01  0.162E+01
   8.606  0.177E+01  0.164E+01
   8.616  0.180E+01  0.166E+01
   8.626  0.182E+01  0.168E+01
   8.636  0.184E+01  0.170E+01
   8.646  0.186E+01  0.172E+01
   8.656  0.188E+01  0.174E+01
   8.666  0.190E+01  0.175E+01
   8.676  0.192E+01  0.177E+01
   8.686  0.193E+01  0.178E+01
   8.696  0.194E+01  0.179E+01
   8.706  0.195E+01  0.180E+01
   8.716  0.196E+01  0.181E+01
   8.726  0.196E+01  0.181E+01
   8.736  0.196E+01  0.181E+01
   8.746  0.196E+01  0.181E+01
   8.756  0.196E+01  0.181E+01
   8.766  0.195E+01  0.180E+01
   8.776  0.194E+01  0.179E+01
   8.786  0.193E+01  0.178E+01
   8.796  0.191E+01  0.176E+01
   8.806  0.189E+01  0.175E+01
   8.816  0.188E+01  0.173E+01
   8.826  0.186E+01  0.171E+01
   8.836  0.183E+01  0.169E+01
   8.846  0.181E+01  0.167E+01
   8.856  0.179E+01  0.165E+01
   8.866  0.177E+01  0.163E+01
   8.876  0.174E+01  0.161E+01
   8.886  0.172E+01  0.159E+01
   8.896  0.170E+01  0.157E+01
   8.906  0.168E+01  0.155E+01
   8.916  0.165E+01  0.153E+01
   8.926  0.163E+01  0.151E+01
   8.936  0.161E+01  0.149E+01
   8.946  0.160E+01  0.147E+01
   8.956  0.158E+01  0.146E+01
   8.966  0.157E+01  0.145E+01
   8.976  0.155E+01  0.143E+01
   8.986  0.154E+01  0.142E+01
   8.996  0.153E+01  0.141E+01
   9.006  0.152E+01  0.141E+01
   9.016  0.151E+01  0.140E+01
   9.026  0.151E+01  0.139E+01
   9.036  0.150E+01  0.139E+01
   9.046  0.150E+01  0.138E+01
   9.056  0.149E+01  0.138E+01
   9.066  0.149E+01  0.138E+01
   9.076  0.149E+01  0.138E+01
   9.086  0.149E+01  0.138E+01
   9.096  0.149E+01  0.138E+01
   9.106  0.149E+01  0.138E+01
   9.116  0.149E+01  0.138E+01
   9.126  0.150E+01  0.138E+01
   9.136  0.150E+01  0.139E+01
   9.146  0.151E+01  0.140E+01
   9.156  0.152E+01  0.140E+01
   9.166  0.153E+01  0.141E+01
   9.176  0.154E+01  0.142E+01
   9.186  0.156E+01  0.144E+01
   9.196  0.157E+01  0.145E+01
   9.206  0.159E+01  0.146E+01
   9.216  0.160E+01  0.148E+01
   9.226  0.162E+01  0.149E+01
   9.236  0.164E+01  0.151E+01
   9.246  0.165E+01  0.152E+01
   9.256  0.167E+01  0.154E+01
   9.266  0.169E+01  0.155E+01
   9.276  0.170E+01  0.156E+01
   9.286  0.172E+01  0.158E+01
   9.296  0.173E+01  0.159E+01
   9.306  0.174E+01  0.160E+01
   9.316  0.175E+01  0.161E+01
   9.326  0.176E+01  0.161E+01
   9.336  0.177E+01  0.162E+01
   9.346  0.177E+01  0.162E+01
   9.356  0.178E+01  0.163E+01
   9.366  0.178E+01  0.163E+01
   9.376  0.178E+01  0.163E+01
   9.386  0.178E+01  0.163E+01
   9.396  0.178E+01  0.163E+01
   9.406  0.178E+01  0.163E+01
   9.416  0.179E+01  0.163E+01
   9.426  0.179E+01  0.163E+01
   9.436  0.179E+01  0.163E+01
   9.446  0.179E+01  0.163E+01
   9.456  0.180E+01  0.163E+01
   9.466  0.180E+01  0.164E+01
   9.476  0.181E+01  0.164E+01
   9.486  0.181E+01  0.164E+01
   9.496  0.182E+01  0.165E+01
   9.506  0.183E+01  0.166E+01
   9.516  0.184E+01  0.166E+01
   9.526  0.185E+01  0.167E+01
   9.536  0.186E+01  0.168E+01
   9.546  0.187E+01  0.169E+01
   9.556  0.188E+01  0.169E+01
   9.566  0.188E+01  0.170E+01
   9.576  0.189E+01  0.171E+01
   9.586  0.190E+01  0.171E+01
   9.596  0.190E+01  0.172E+01
   9.606  0.191E+01  0.172E+01
   9.616  0.191E+01  0.172E+01
   9.626  0.191E+01  0.172E+01
   9.636  0.191E+01  0.172E+01
   9.646  0.190E+01  0.172E+01
   9.656  0.190E+01  0.171E+01
   9.666  0.189E+01  0.170E+01
   9.676  0.188E+01  0.169E+01
   9.686  0.186E+01  0.168E+01
   9.696  0.185E+01  0.167E+01
   9.706  0.183E+01  0.165E+01
   9.716  0.181E+01  0.163E+01
   9.726  0.179E+01  0.162E+01
   9.736  0.177E+01  0.160E+01
   9.746  0.175E+01  0.158E+01
   9.756  0.172E+01  0.156E+01
   9.766  0.170E+01  0.154E+01
   9.776  0.168E+01  0.152E+01
   9.786  0.166E+01  0.150E+01
   9.796  0.164E+01  0.148E+01
   9.806  0.162E+01  0.147E+01
   9.816  0.160E+01  0.145E+01
   9.826  0.159E+01  0.144E+01
   9.836  0.158E+01  0.143E+01
   9.846  0.157E+01  0.142E+01
   9.856  0.156E+01  0.142E+01
   9.866  0.156E+01  0.142E+01
   9.876  0.156E+01  0.142E+01
   9.886  0.157E+01  0.142E+01
   9.896  0.158E+01  0.143E+01
   9.906  0.159E+01  0.144E+01
   9.916  0.161E+01  0.146E+01
   9.926  0.163E+01  0.148E+01
   9.936  0.166E+01  0.150E+01
   9.946  0.169E+01  0.152E+01
   9.956  0.172E+01  0.155E+01
   9.966  0.175E+01  0.158E+01
   9.976  0.178E+01  0.160E+01
   9.986  0.181E+01  0.163E+01
   9.996  0.184E+01  0.166E+01
  10.006  0.187E+01  0.168E+01
  10.016  0.189E+01  0.170E+01
  10.026  0.192E+01  0.172E+01
  10.036  0.193E+01  0.174E+01
  10.046  0.195E+01  0.175E+01
  10.056  0.195E+01  0.176E+01
  10.066  0.196E+01  0.176E+01
  10.076  0.195E+01  0.175E+01
  10.086  0.195E+01  0.175E+01
  10.096  0.193E+01  0.174E+01
  10.106  0.192E+01  0.172E+01
  10.116  0.190E+01  0.170E+01
  10.126  0.188E+01  0.168E+01
  10.136  0.185E+01  0.166E+01
  10.146  0.183E+01  0.164E+01
  10.156  0.180E+01  0.162E+01
  10.166  0.178E+01  0.160E+01
  10.176  0.176E+01  0.158E+01
  10.186  0.174E+01  0.156E+01
  10.196  0.173E+01  0.155E+01
  10.206  0.172E+01  0.154E+01
  10.216  0.171E+01  0.154E+01
  10.226  0.171E+01  0.154E+01
  10.236  0.171E+01  0.154E+01
  10.246  0.172E+01  0.154E+01
  10.256  0.173E+01  0.155E+01
  10.266  0.174E+01  0.157E+01
  10.276  0.176E+01  0.158E+01
  10.286  0.178E+01  0.160E+01
  10.296  0.180E+01  0.161E+01
  10.306  0.182E+01  0.163E+01
  10.316  0.184E+01  0.165E+01
  10.326  0.186E+01  0.167E+01
  10.336  0.188E+01  0.168E+01
  10.346  0.189E+01  0.169E+01
  10.356  0.190E+01  0.170E+01
  10.366  0.190E+01  0.171E+01
  10.376  0.191E+01  0.171E+01
  10.386  0.190E+01  0.170E+01
  10.396  0.189E+01  0.170E+01
  10.406  0.188E+01  0.168E+01
  10.416  0.186E+01  0.167E+01
  10.426  0.184E+01  0.165E+01
  10.436  0.182E+01  0.163E+01
  10.446  0.180E+01  0.160E+01
  10.456  0.177E+01  0.158E+01
  10.466  0.175E+01  0.156E+01
  10.476  0.172E+01  0.153E+01
  10.486  0.170E+01  0.151E+01
  10.496  0.168E+01  0.149E+01
  10.506  0.166E+01  0.147E+01
  10.516  0.165E+01  0.146E+01
  10.526  0.164E+01  0.145E+01
  10.536  0.164E+01  0.145E+01
  10.546  0.164E+01  0.145E+01
  10.556  0.165E+01  0.145E+01
  10.566  0.167E+01  0.146E+01
  10.576  0.168E+01  0.148E+01
  10.586  0.171E+01  0.150E+01
  10.596  0.173E+01  0.152E+01
  10.606  0.176E+01  0.154E+01
  10.616  0.180E+01  0.157E+01
  10.626  0.183E+01  0.160E+01
  10.636  0.186E+01  0.163E+01
  10.646  0.189E+01  0.166E+01
  10.656  0.192E+01  0.169E+01
  10.666  0.195E+01  0.171E+01
  10.676  0.198E+01  0.174E+01
  10.686  0.200E+01  0.176E+01
  10.696  0.201E+01  0.177E+01
  10.706  0.203E+01  0.178E+01
  10.716  0.203E+01  0.179E+01
  10.726  0.203E+01  0.179E+01
  10.736  0.203E+01  0.179E+01
  10.746  0.202E+01  0.178E+01
  10.756  0.201E+01  0.177E+01
  10.766  0.199E+01  0.175E+01
  10.776  0.197E+01  0.174E+01
  10.786  0.195E+01  0.172E+01
  10.796  0.192E+01  0.170E+01
  10.806  0.190E+01  0.167E+01
  10.816  0.188E+01  0.165E+01
  10.826  0.186E+01  0.163E+01
  10.836  0.183E+01  0.161E+01
  10.846  0.182E+01  0.160E+01
  10.856  0.180E+01  0.158E+01
  10.866  0.179E+01  0.157E+01
  10.876  0.178E+01  0.156E+01
  10.886  0.177E+01  0.155E+01
  10.896  0.177E+01  0.155E+01
  10.906  0.177E+01  0.155E+01
  10.916  0.178E+01  0.155E+01
  10.926  0.179E+01  0.156E+01
  10.936  0.180E+01  0.157E+01
  10.946  0.181E+01  0.158E+01
  10.956  0.182E+01  0.159E+01
  10.966  0.184E+01  0.160E+01
  10.976  0.185E+01  0.161E+01
  10.986  0.187E+01  0.163E+01
  10.996  0.188E+01  0.164E+01
  11.006  0.189E+01  0.165E+01
  11.016  0.190E+01  0.166E+01
  11.026  0.191E+01  0.166E+01
  11.036  0.191E+01  0.167E+01
  11.046  0.191E+01  0.167E+01
  11.056  0.191E+01  0.167E+01
  11.066  0.191E+01  0.167E+01
  11.076  0.190E+01  0.166E+01
  11.086  0.189E+01  0.165E+01
  11.096  0.188E+01  0.165E+01
  11.106  0.187E+01  0.164E+01
  11.116  0.186E+01  0.162E+01
  11.126  0.184E+01  0.161E+01
  11.136  0.183E+01  0.160E+01
  11.146  0.181E+01  0.159E+01
  11.156  0.180E+01  0.158E+01
  11.166  0.179E+01  0.157E+01
  11.176  0.177E+01  0.156E+01
  11.186  0.176E+01  0.155E+01
  11.196  0.175E+01  0.154E+01
  11.206  0.175E+01  0.153E+01
  11.216  0.174E+01  0.153E+01
  11.226  0.174E+01  0.152E+01
  11.236  0.174E+01  0.152E+01
  11.246  0.173E+01  0.152E+01
  11.256  0.174E+01  0.152E+01
  11.266  0.174E+01  0.152E+01
  11.276  0.174E+01  0.152E+01
  11.286  0.174E+01  0.152E+01
  11.296  0.175E+01  0.153E+01
  11.306  0.175E+01  0.153E+01
  11.316  0.175E+01  0.153E+01
  11.326  0.175E+01  0.153E+01
  11.336  0.175E+01  0.152E+01
  11.346  0.175E+01  0.152E+01
  11.356  0.174E+01  0.151E+01
  11.366  0.173E+01  0.151E+01
  11.376  0.172E+01  0.149E+01
  11.386  0.171E+01  0.148E+01
  11.396  0.169E+01  0.146E+01
  11.406  0.167E+01  0.145E+01
  11.416  0.165E+01  0.142E+01
  11.426  0.162E+01  0.140E+01
  11.436  0.159E+01  0.138E+01
  11.446  0.157E+01  0.135E+01
  11.456  0.154E+01  0.133E+01
  11.466  0.151E+01  0.131E+01
  11.476  0.149E+01  0.128E+01
  11.486  0.147E+01  0.126E+01
  11.496  0.145E+01  0.125E+01
  11.506  0.143E+01  0.123E+01
  11.516  0.142E+01  0.122E+01
  11.526  0.142E+01  0.122E+01
  11.536  0.142E+01  0.121E+01
  11.546  0.142E+01  0.122E+01
  11.556  0.142E+01  0.122E+01
  11.566  0.143E+01  0.123E+01
  11.576  0.145E+01  0.124E+01
  11.586  0.146E+01  0.125E+01
  11.596  0.148E+01  0.126E+01
  11.606  0.149E+01  0.127E+01
  11.616  0.151E+01  0.129E+01
  11.626  0.152E+01  0.130E+01
  11.636  0.153E+01  0.130E+01
  11.646  0.153E+01  0.131E+01
  11.656  0.154E+01  0.131E+01
  11.666  0.153E+01  0.131E+01
  11.676  0.153E+01  0.130E+01
  11.686  0.152E+01  0.129E+01
  11.696  0.150E+01  0.127E+01
  11.706  0.148E+01  0.126E+01
  11.716  0.146E+01  0.123E+01
  11.726  0.143E+01  0.121E+01
  11.736  0.140E+01  0.119E+01
  11.746  0.137E+01  0.116E+01
  11.756  0.134E+01  0.113E+01
  11.766  0.131E+01  0.110E+01
  11.776  0.128E+01  0.108E+01
  11.786  0.125E+01  0.105E+01
  11.796  0.122E+01  0.102E+01
  11.806  0.119E+01  0.100E+01
  11.816  0.117E+01  0.978E+00
  11.826  0.114E+01  0.957E+00
  11.836  0.112E+01  0.939E+00
  11.846  0.110E+01  0.922E+00
  11.856  0.108E+01  0.907E+00
  11.866  0.107E+01  0.893E+00
  11.876  0.105E+01  0.881E+00
  11.886  0.104E+01  0.870E+00
  11.896  0.103E+01  0.861E+00
  11.906  0.102E+01  0.852E+00
  11.916  0.101E+01  0.844E+00
  11.926  0.101E+01  0.837E+00
  11.936  0.998E+00  0.830E+00
  11.946  0.991E+00  0.824E+00
  11.956  0.985E+00  0.818E+00
  11.966  0.979E+00  0.812E+00
  11.976  0.974E+00  0.807E+00
  11.986  0.968E+00  0.801E+00
  11.996  0.962E+00  0.795E+00
  12.006  0.956E+00  0.788E+00
  12.016  0.950E+00  0.782E+00
  12.026  0.944E+00  0.775E+00
  12.036  0.937E+00  0.768E+00
  12.046  0.930E+00  0.760E+00
  12.056  0.922E+00  0.752E+00
  12.066  0.913E+00  0.743E+00
  12.076  0.904E+00  0.734E+00
  12.086  0.893E+00  0.724E+00
  12.096  0.882E+00  0.714E+00
  12.106  0.871E+00  0.703E+00
  12.116  0.858E+00  0.692E+00
  12.126  0.845E+00  0.681E+00
  12.136  0.831E+00  0.669E+00
  12.146  0.816E+00  0.657E+00
  12.156  0.801E+00  0.645E+00
  12.166  0.786E+00  0.632E+00
  12.176  0.770E+00  0.619E+00
  12.186  0.754E+00  0.607E+00
  12.196  0.738E+00  0.594E+00
  12.206  0.722E+00  0.582E+00
  12.216  0.705E+00  0.569E+00
  12.226  0.689E+00  0.557E+00
  12.236  0.674E+00  0.545E+00
  12.246  0.658E+00  0.533E+00
  12.256  0.643E+00  0.522E+00
  12.266  0.628E+00  0.511E+00
  12.276  0.613E+00  0.499E+00
  12.286  0.598E+00  0.488E+00
  12.296  0.584E+00  0.477E+00
  12.306  0.569E+00  0.466E+00
  12.316  0.555E+00  0.455E+00
  12.326  0.540E+00  0.443E+00
  12.336  0.526E+00  0.432E+00
  12.346  0.512E+00  0.421E+00
  12.356  0.498E+00  0.409E+00
  12.366  0.484E+00  0.398E+00
  12.376  0.470E+00  0.386E+00
  12.386  0.457E+00  0.375E+00
  12.396  0.445E+00  0.365E+00
  12.406  0.434E+00  0.355E+00
  12.416  0.424E+00  0.345E+00
  12.426  0.415E+00  0.337E+00
  12.436  0.408E+00  0.330E+00
  12.446  0.402E+00  0.324E+00
  12.456  0.398E+00  0.319E+00
  12.466  0.396E+00  0.316E+00
  12.476  0.396E+00  0.314E+00
  12.486  0.396E+00  0.313E+00
  12.496  0.399E+00  0.313E+00
  12.506  0.402E+00  0.314E+00
  12.516  0.406E+00  0.316E+00
  12.526  0.411E+00  0.318E+00
  12.536  0.415E+00  0.321E+00
  12.546  0.420E+00  0.324E+00
  12.556  0.424E+00  0.326E+00
  12.566  0.427E+00  0.328E+00
  12.576  0.429E+00  0.329E+00
  12.586  0.429E+00  0.330E+00
  12.596  0.428E+00  0.329E+00
  12.606  0.426E+00  0.328E+00
  12.616  0.422E+00  0.325E+00
  12.626  0.417E+00  0.321E+00
  12.636  0.410E+00  0.316E+00
  12.646  0.402E+00  0.311E+00
  12.656  0.393E+00  0.304E+00
  12.666  0.383E+00  0.297E+00
  12.676  0.372E+00  0.290E+00
  12.686  0.362E+00  0.283E+00
  12.696  0.352E+00  0.275E+00
  12.706  0.342E+00  0.268E+00
  12.716  0.332E+00  0.261E+00
  12.726  0.324E+00  0.255E+00
  12.736  0.317E+00  0.250E+00
  12.746  0.311E+00  0.246E+00
  12.756  0.306E+00  0.243E+00
  12.766  0.304E+00  0.241E+00
  12.776  0.303E+00  0.241E+00
  12.786  0.304E+00  0.242E+00
  12.796  0.306E+00  0.244E+00
  12.806  0.310E+00  0.247E+00
  12.816  0.315E+00  0.251E+00
  12.826  0.322E+00  0.257E+00
  12.836  0.329E+00  0.262E+00
  12.846  0.337E+00  0.269E+00
  12.856  0.345E+00  0.275E+00
  12.866  0.354E+00  0.282E+00
  12.876  0.362E+00  0.288E+00
  12.886  0.369E+00  0.293E+00
  12.896  0.375E+00  0.298E+00
  12.906  0.380E+00  0.302E+00
  12.916  0.384E+00  0.305E+00
  12.926  0.387E+00  0.307E+00
  12.936  0.387E+00  0.307E+00
  12.946  0.387E+00  0.306E+00
  12.956  0.384E+00  0.304E+00
  12.966  0.381E+00  0.301E+00
  12.976  0.375E+00  0.297E+00
  12.986  0.369E+00  0.291E+00
  12.996  0.362E+00  0.285E+00
  13.006  0.353E+00  0.278E+00
  13.016  0.344E+00  0.270E+00
  13.026  0.335E+00  0.262E+00
  13.036  0.325E+00  0.254E+00
  13.046  0.315E+00  0.245E+00
  13.056  0.305E+00  0.237E+00
  13.066  0.296E+00  0.229E+00
  13.076  0.287E+00  0.221E+00
  13.086  0.278E+00  0.214E+00
  13.096  0.270E+00  0.207E+00
  13.106  0.263E+00  0.201E+00
  13.116  0.257E+00  0.196E+00
  13.126  0.252E+00  0.192E+00
  13.136  0.248E+00  0.188E+00
  13.146  0.245E+00  0.186E+00
  13.156  0.243E+00  0.184E+00
  13.166  0.243E+00  0.184E+00
  13.176  0.244E+00  0.184E+00
  13.186  0.245E+00  0.185E+00
  13.196  0.248E+00  0.188E+00
  13.206  0.251E+00  0.190E+00
  13.216  0.255E+00  0.194E+00
  13.226  0.260E+00  0.198E+00
  13.236  0.265E+00  0.203E+00
  13.246  0.271E+00  0.207E+00
  13.256  0.276E+00  0.212E+00
  13.266  0.282E+00  0.217E+00
  13.276  0.287E+00  0.221E+00
  13.286  0.291E+00  0.225E+00
  13.296  0.295E+00  0.228E+00
  13.306  0.299E+00  0.231E+00
  13.316  0.301E+00  0.233E+00
  13.326  0.302E+00  0.235E+00
  13.336  0.303E+00  0.235E+00
  13.346  0.303E+00  0.235E+00
  13.356  0.301E+00  0.234E+00
  13.366  0.299E+00  0.232E+00
  13.376  0.296E+00  0.230E+00
  13.386  0.293E+00  0.227E+00
  13.396  0.289E+00  0.224E+00
  13.406  0.285E+00  0.221E+00
  13.416  0.280E+00  0.217E+00
  13.426  0.276E+00  0.214E+00
  13.436  0.273E+00  0.211E+00
  13.446  0.269E+00  0.208E+00
  13.456  0.267E+00  0.206E+00
  13.466  0.264E+00  0.204E+00
  13.476  0.263E+00  0.203E+00
  13.486  0.262E+00  0.202E+00
  13.496  0.262E+00  0.201E+00
  13.506  0.262E+00  0.201E+00
  13.516  0.263E+00  0.202E+00
  13.526  0.264E+00  0.202E+00
  13.536  0.265E+00  0.203E+00
  13.546  0.266E+00  0.204E+00
  13.556  0.267E+00  0.204E+00
  13.566  0.268E+00  0.205E+00
  13.576  0.267E+00  0.205E+00
  13.586  0.267E+00  0.204E+00
  13.596  0.265E+00  0.203E+00
  13.606  0.263E+00  0.201E+00
  13.616  0.259E+00  0.199E+00
  13.626  0.255E+00  0.196E+00
  13.636  0.250E+00  0.192E+00
  13.646  0.244E+00  0.187E+00
  13.656  0.238E+00  0.182E+00
  13.666  0.231E+00  0.177E+00
  13.676  0.223E+00  0.171E+00
  13.686  0.216E+00  0.166E+00
  13.696  0.208E+00  0.160E+00
  13.706  0.201E+00  0.155E+00
  13.716  0.194E+00  0.150E+00
  13.726  0.188E+00  0.145E+00
  13.736  0.183E+00  0.141E+00
  13.746  0.179E+00  0.138E+00
  13.756  0.176E+00  0.135E+00
  13.766  0.174E+00  0.134E+00
  13.776  0.173E+00  0.133E+00
  13.786  0.174E+00  0.133E+00
  13.796  0.175E+00  0.134E+00
  13.806  0.178E+00  0.136E+00
  13.816  0.182E+00  0.139E+00
  13.826  0.186E+00  0.143E+00
  13.836  0.192E+00  0.147E+00
  13.846  0.198E+00  0.151E+00
  13.856  0.204E+00  0.155E+00
  13.866  0.210E+00  0.160E+00
  13.876  0.216E+00  0.164E+00
  13.886  0.221E+00  0.168E+00
  13.896  0.226E+00  0.172E+00
  13.906  0.230E+00  0.175E+00
  13.916  0.232E+00  0.177E+00
  13.926  0.234E+00  0.178E+00
  13.936  0.234E+00  0.178E+00
  13.946  0.233E+00  0.176E+00
  13.956  0.230E+00  0.174E+00
  13.966  0.226E+00  0.171E+00
  13.976  0.221E+00  0.167E+00
  13.986  0.214E+00  0.162E+00
  13.996  0.207E+00  0.156E+00
  14.006  0.199E+00  0.150E+00
  14.016  0.191E+00  0.144E+00
  14.026  0.183E+00  0.137E+00
  14.036  0.175E+00  0.131E+00
  14.046  0.167E+00  0.125E+00
  14.056  0.160E+00  0.119E+00
  14.066  0.154E+00  0.114E+00
  14.076  0.149E+00  0.111E+00
  14.086  0.146E+00  0.108E+00
  14.096  0.144E+00  0.106E+00
  14.106  0.144E+00  0.106E+00
  14.116  0.146E+00  0.107E+00
  14.126  0.149E+00  0.109E+00
  14.136  0.154E+00  0.112E+00
  14.146  0.160E+00  0.116E+00
  14.156  0.167E+00  0.121E+00
  14.166  0.176E+00  0.127E+00
  14.176  0.185E+00  0.134E+00
  14.186  0.194E+00  0.141E+00
  14.196  0.204E+00  0.148E+00
  14.206  0.213E+00  0.155E+00
  14.216  0.222E+00  0.161E+00
  14.226  0.230E+00  0.167E+00
  14.236  0.237E+00  0.173E+00
  14.246  0.243E+00  0.177E+00
  14.256  0.247E+00  0.180E+00
  14.266  0.250E+00  0.182E+00
  14.276  0.251E+00  0.183E+00
  14.286  0.250E+00  0.183E+00
  14.296  0.248E+00  0.181E+00
  14.306  0.244E+00  0.178E+00
  14.316  0.238E+00  0.174E+00
  14.326  0.231E+00  0.169E+00
  14.336  0.223E+00  0.163E+00
  14.346  0.214E+00  0.156E+00
  14.356  0.204E+00  0.149E+00
  14.366  0.194E+00  0.141E+00
  14.376  0.183E+00  0.134E+00
  14.386  0.173E+00  0.126E+00
  14.396  0.163E+00  0.119E+00
  14.406  0.154E+00  0.112E+00
  14.416  0.145E+00  0.106E+00
  14.426  0.138E+00  0.100E+00
  14.436  0.131E+00  0.953E-01
  14.446  0.126E+00  0.915E-01
  14.456  0.122E+00  0.887E-01
  14.466  0.120E+00  0.869E-01
  14.476  0.118E+00  0.861E-01
  14.486  0.118E+00  0.863E-01
  14.496  0.120E+00  0.873E-01
  14.506  0.122E+00  0.893E-01
  14.516  0.126E+00  0.919E-01
  14.526  0.130E+00  0.952E-01
  14.536  0.136E+00  0.991E-01
  14.546  0.141E+00  0.103E+00
  14.556  0.148E+00  0.108E+00
  14.566  0.154E+00  0.112E+00
  14.576  0.160E+00  0.117E+00
  14.586  0.166E+00  0.121E+00
  14.596  0.172E+00  0.126E+00
  14.606  0.177E+00  0.129E+00
  14.616  0.182E+00  0.133E+00
  14.626  0.186E+00  0.135E+00
  14.636  0.189E+00  0.138E+00
  14.646  0.192E+00  0.139E+00
  14.656  0.193E+00  0.140E+00
  14.666  0.194E+00  0.140E+00
  14.676  0.193E+00  0.140E+00
  14.686  0.192E+00  0.139E+00
  14.696  0.190E+00  0.137E+00
  14.706  0.188E+00  0.135E+00
  14.716  0.185E+00  0.132E+00
  14.726  0.181E+00  0.130E+00
  14.736  0.178E+00  0.127E+00
  14.746  0.174E+00  0.124E+00
  14.756  0.171E+00  0.121E+00
  14.766  0.168E+00  0.119E+00
  14.776  0.165E+00  0.116E+00
  14.786  0.163E+00  0.115E+00
  14.796  0.161E+00  0.113E+00
  14.806  0.160E+00  0.112E+00
  14.816  0.160E+00  0.112E+00
  14.826  0.160E+00  0.112E+00
  14.836  0.161E+00  0.112E+00
  14.846  0.163E+00  0.113E+00
  14.856  0.165E+00  0.114E+00
  14.866  0.166E+00  0.115E+00
  14.876  0.168E+00  0.117E+00
  14.886  0.170E+00  0.118E+00
  14.896  0.171E+00  0.119E+00
  14.906  0.172E+00  0.119E+00
  14.916  0.172E+00  0.119E+00
  14.926  0.171E+00  0.119E+00
  14.936  0.169E+00  0.118E+00
  14.946  0.167E+00  0.116E+00
  14.956  0.163E+00  0.113E+00
  14.966  0.158E+00  0.110E+00
  14.976  0.152E+00  0.106E+00
  14.986  0.146E+00  0.102E+00
  14.996  0.139E+00  0.968E-01
  15.006  0.131E+00  0.915E-01
  15.016  0.123E+00  0.859E-01
  15.026  0.115E+00  0.802E-01
  15.036  0.106E+00  0.744E-01
  15.046  0.983E-01  0.689E-01
  15.056  0.908E-01  0.636E-01
  15.066  0.839E-01  0.588E-01
  15.076  0.778E-01  0.546E-01
  15.086  0.726E-01  0.510E-01
  15.096  0.687E-01  0.483E-01
  15.106  0.659E-01  0.464E-01
  15.116  0.645E-01  0.454E-01
  15.126  0.645E-01  0.454E-01
  15.136  0.659E-01  0.465E-01
  15.146  0.687E-01  0.485E-01
  15.156  0.729E-01  0.515E-01
  15.166  0.784E-01  0.554E-01
  15.176  0.850E-01  0.601E-01
  15.186  0.927E-01  0.655E-01
  15.196  0.101E+00  0.714E-01
  15.206  0.110E+00  0.778E-01
  15.216  0.119E+00  0.843E-01
  15.226  0.129E+00  0.909E-01
  15.236  0.138E+00  0.973E-01
  15.246  0.146E+00  0.103E+00
  15.256  0.154E+00  0.109E+00
  15.266  0.161E+00  0.113E+00
  15.276  0.166E+00  0.117E+00
  15.286  0.170E+00  0.120E+00
  15.296  0.173E+00  0.122E+00
  15.306  0.173E+00  0.122E+00
  15.316  0.173E+00  0.121E+00
  15.326  0.170E+00  0.119E+00
  15.336  0.166E+00  0.116E+00
  15.346  0.161E+00  0.113E+00
  15.356  0.154E+00  0.108E+00
  15.366  0.147E+00  0.103E+00
  15.376  0.139E+00  0.968E-01
  15.386  0.131E+00  0.908E-01
  15.396  0.122E+00  0.848E-01
  15.406  0.114E+00  0.790E-01
  15.416  0.107E+00  0.734E-01
  15.426  0.999E-01  0.684E-01
  15.436  0.940E-01  0.640E-01
  15.446  0.891E-01  0.603E-01
  15.456  0.854E-01  0.574E-01
  15.466  0.828E-01  0.553E-01
  15.476  0.815E-01  0.541E-01
  15.486  0.814E-01  0.537E-01
  15.496  0.823E-01  0.542E-01
  15.506  0.843E-01  0.553E-01
  15.516  0.872E-01  0.571E-01
  15.526  0.908E-01  0.594E-01
  15.536  0.949E-01  0.621E-01
  15.546  0.994E-01  0.651E-01
  15.556  0.104E+00  0.683E-01
  15.566  0.109E+00  0.714E-01
  15.576  0.113E+00  0.744E-01
  15.586  0.117E+00  0.772E-01
  15.596  0.120E+00  0.796E-01
  15.606  0.123E+00  0.814E-01
  15.616  0.124E+00  0.828E-01
  15.626  0.125E+00  0.834E-01
  15.636  0.125E+00  0.834E-01
  15.646  0.124E+00  0.827E-01
  15.656  0.121E+00  0.813E-01
  15.666  0.118E+00  0.793E-01
  15.676  0.114E+00  0.766E-01
  15.686  0.109E+00  0.734E-01
  15.696  0.104E+00  0.698E-01
  15.706  0.975E-01  0.658E-01
  15.716  0.912E-01  0.617E-01
  15.726  0.848E-01  0.574E-01
  15.736  0.785E-01  0.532E-01
  15.746  0.724E-01  0.491E-01
  15.756  0.668E-01  0.453E-01
  15.766  0.617E-01  0.419E-01
  15.776  0.573E-01  0.389E-01
  15.786  0.536E-01  0.364E-01
  15.796  0.508E-01  0.345E-01
  15.806  0.490E-01  0.332E-01
  15.816  0.480E-01  0.325E-01
  15.826  0.479E-01  0.325E-01
  15.836  0.488E-01  0.330E-01
  15.846  0.504E-01  0.340E-01
  15.856  0.527E-01  0.355E-01
  15.866  0.556E-01  0.374E-01
  15.876  0.590E-01  0.397E-01
  15.886  0.627E-01  0.421E-01
  15.896  0.667E-01  0.447E-01
  15.906  0.706E-01  0.473E-01
  15.916  0.745E-01  0.498E-01
  15.926  0.781E-01  0.522E-01
  15.936  0.814E-01  0.543E-01
  15.946  0.842E-01  0.561E-01
  15.956  0.865E-01  0.575E-01
  15.966  0.881E-01  0.585E-01
  15.976  0.891E-01  0.590E-01
  15.986  0.895E-01  0.591E-01
  15.996  0.893E-01  0.588E-01
  16.006  0.884E-01  0.581E-01
  16.016  0.871E-01  0.571E-01
  16.026  0.854E-01  0.558E-01
  16.036  0.833E-01  0.542E-01
  16.046  0.810E-01  0.525E-01
  16.056  0.787E-01  0.507E-01
  16.066  0.763E-01  0.490E-01
  16.076  0.742E-01  0.473E-01
  16.086  0.723E-01  0.458E-01
  16.096  0.707E-01  0.445E-01
  16.106  0.696E-01  0.436E-01
  16.116  0.691E-01  0.429E-01
  16.126  0.691E-01  0.427E-01
  16.136  0.698E-01  0.429E-01
  16.146  0.711E-01  0.434E-01
  16.156  0.729E-01  0.444E-01
  16.166  0.754E-01  0.458E-01
  16.176  0.783E-01  0.475E-01
  16.186  0.816E-01  0.494E-01
  16.196  0.852E-01  0.516E-01
  16.206  0.890E-01  0.540E-01
  16.216  0.928E-01  0.563E-01
  16.226  0.965E-01  0.587E-01
  16.236  0.100E+00  0.609E-01
  16.246  0.103E+00  0.629E-01
  16.256  0.106E+00  0.647E-01
  16.266  0.107E+00  0.660E-01
  16.276  0.109E+00  0.669E-01
  16.286  0.109E+00  0.674E-01
  16.296  0.109E+00  0.673E-01
  16.306  0.107E+00  0.667E-01
  16.316  0.105E+00  0.655E-01
  16.326  0.102E+00  0.639E-01
  16.336  0.987E-01  0.618E-01
  16.346  0.944E-01  0.592E-01
  16.356  0.896E-01  0.564E-01
  16.366  0.844E-01  0.532E-01
  16.376  0.788E-01  0.498E-01
  16.386  0.731E-01  0.463E-01
  16.396  0.674E-01  0.428E-01
  16.406  0.618E-01  0.393E-01
  16.416  0.564E-01  0.359E-01
  16.426  0.513E-01  0.327E-01
  16.436  0.467E-01  0.298E-01
  16.446  0.426E-01  0.272E-01
  16.456  0.391E-01  0.250E-01
  16.466  0.363E-01  0.232E-01
  16.476  0.342E-01  0.219E-01
  16.486  0.329E-01  0.211E-01
  16.496  0.323E-01  0.208E-01
  16.506  0.326E-01  0.209E-01
  16.516  0.336E-01  0.216E-01
  16.526  0.354E-01  0.227E-01
  16.536  0.380E-01  0.243E-01
  16.546  0.411E-01  0.264E-01
  16.556  0.448E-01  0.287E-01
  16.566  0.490E-01  0.314E-01
  16.576  0.536E-01  0.343E-01
  16.586  0.583E-01  0.373E-01
  16.596  0.631E-01  0.404E-01
  16.606  0.679E-01  0.434E-01
  16.616  0.724E-01  0.463E-01
  16.626  0.766E-01  0.489E-01
  16.636  0.802E-01  0.512E-01
  16.646  0.833E-01  0.531E-01
  16.656  0.856E-01  0.545E-01
  16.666  0.871E-01  0.555E-01
  16.676  0.878E-01  0.559E-01
  16.686  0.877E-01  0.557E-01
  16.696  0.867E-01  0.550E-01
  16.706  0.850E-01  0.539E-01
  16.716  0.826E-01  0.522E-01
  16.726  0.796E-01  0.502E-01
  16.736  0.761E-01  0.479E-01
  16.746  0.723E-01  0.453E-01
  16.756  0.683E-01  0.427E-01
  16.766  0.643E-01  0.399E-01
  16.776  0.603E-01  0.373E-01
  16.786  0.566E-01  0.347E-01
  16.796  0.532E-01  0.324E-01
  16.806  0.502E-01  0.303E-01
  16.816  0.476E-01  0.284E-01
  16.826  0.456E-01  0.269E-01
  16.836  0.440E-01  0.257E-01
  16.846  0.430E-01  0.249E-01
  16.856  0.424E-01  0.243E-01
  16.866  0.422E-01  0.240E-01
  16.876  0.424E-01  0.239E-01
  16.886  0.428E-01  0.241E-01
  16.896  0.435E-01  0.243E-01
  16.906  0.442E-01  0.247E-01
  16.916  0.449E-01  0.251E-01
  16.926  0.456E-01  0.255E-01
  16.936  0.461E-01  0.259E-01
  16.946  0.465E-01  0.261E-01
  16.956  0.465E-01  0.263E-01
  16.966  0.463E-01  0.263E-01
  16.976  0.458E-01  0.261E-01
  16.986  0.450E-01  0.257E-01
  16.996  0.439E-01  0.252E-01
  17.006  0.425E-01  0.245E-01
  17.016  0.408E-01  0.236E-01
  17.026  0.389E-01  0.226E-01
  17.036  0.368E-01  0.215E-01
  17.046  0.345E-01  0.202E-01
  17.056  0.323E-01  0.190E-01
  17.066  0.300E-01  0.177E-01
  17.076  0.277E-01  0.165E-01
  17.086  0.256E-01  0.153E-01
  17.096  0.237E-01  0.142E-01
  17.106  0.220E-01  0.132E-01
  17.116  0.206E-01  0.124E-01
  17.126  0.196E-01  0.118E-01
  17.136  0.189E-01  0.115E-01
  17.146  0.186E-01  0.113E-01
  17.156  0.187E-01  0.114E-01
  17.166  0.193E-01  0.118E-01
  17.176  0.202E-01  0.124E-01
  17.186  0.216E-01  0.132E-01
  17.196  0.233E-01  0.143E-01
  17.206  0.254E-01  0.156E-01
  17.216  0.277E-01  0.170E-01
  17.226  0.303E-01  0.186E-01
  17.236  0.330E-01  0.203E-01
  17.246  0.357E-01  0.220E-01
  17.256  0.385E-01  0.236E-01
  17.266  0.411E-01  0.253E-01
  17.276  0.436E-01  0.267E-01
  17.286  0.457E-01  0.281E-01
  17.296  0.475E-01  0.292E-01
  17.306  0.490E-01  0.301E-01
  17.316  0.499E-01  0.307E-01
  17.326  0.504E-01  0.310E-01
  17.336  0.505E-01  0.310E-01
  17.346  0.500E-01  0.307E-01
  17.356  0.491E-01  0.301E-01
  17.366  0.478E-01  0.293E-01
  17.376  0.462E-01  0.283E-01
  17.386  0.444E-01  0.272E-01
  17.396  0.423E-01  0.259E-01
  17.406  0.402E-01  0.246E-01
  17.416  0.381E-01  0.232E-01
  17.426  0.360E-01  0.219E-01
  17.436  0.342E-01  0.207E-01
  17.446  0.325E-01  0.197E-01
  17.456  0.312E-01  0.188E-01
  17.466  0.301E-01  0.181E-01
  17.476  0.294E-01  0.176E-01
  17.486  0.290E-01  0.173E-01
  17.496  0.289E-01  0.172E-01
  17.506  0.291E-01  0.173E-01
  17.516  0.296E-01  0.175E-01
  17.526  0.303E-01  0.179E-01
  17.536  0.311E-01  0.184E-01
  17.546  0.320E-01  0.189E-01
  17.556  0.329E-01  0.194E-01
  17.566  0.338E-01  0.199E-01
  17.576  0.345E-01  0.204E-01
  17.586  0.351E-01  0.207E-01
  17.596  0.355E-01  0.209E-01
  17.606  0.357E-01  0.210E-01
  17.616  0.356E-01  0.210E-01
  17.626  0.352E-01  0.208E-01
  17.636  0.345E-01  0.204E-01
  17.646  0.335E-01  0.198E-01
  17.656  0.323E-01  0.192E-01
  17.666  0.309E-01  0.183E-01
  17.676  0.292E-01  0.174E-01
  17.686  0.274E-01  0.163E-01
  17.696  0.255E-01  0.152E-01
  17.706  0.235E-01  0.140E-01
  17.716  0.215E-01  0.128E-01
  17.726  0.195E-01  0.116E-01
  17.736  0.175E-01  0.105E-01
  17.746  0.156E-01  0.934E-02
  17.756  0.138E-01  0.827E-02
  17.766  0.121E-01  0.728E-02
  17.776  0.106E-01  0.637E-02
  17.786  0.926E-02  0.555E-02
  17.796  0.808E-02  0.484E-02
  17.806  0.708E-02  0.423E-02
  17.816  0.627E-02  0.374E-02
  17.826  0.564E-02  0.335E-02
  17.836  0.520E-02  0.307E-02
  17.846  0.494E-02  0.289E-02
  17.856  0.486E-02  0.282E-02
  17.866  0.495E-02  0.285E-02
  17.876  0.520E-02  0.297E-02
  17.886  0.560E-02  0.318E-02
  17.896  0.615E-02  0.347E-02
  17.906  0.682E-02  0.383E-02
  17.916  0.761E-02  0.426E-02
  17.926  0.848E-02  0.474E-02
  17.936  0.943E-02  0.526E-02
  17.946  0.104E-01  0.581E-02
  17.956  0.115E-01  0.638E-02
  17.966  0.125E-01  0.695E-02
  17.976  0.135E-01  0.750E-02
  17.986  0.145E-01  0.803E-02
  17.996  0.154E-01  0.852E-02
  18.006  0.162E-01  0.896E-02
  18.016  0.169E-01  0.935E-02
  18.026  0.175E-01  0.967E-02
  18.036  0.180E-01  0.993E-02
  18.046  0.185E-01  0.101E-01
  18.056  0.188E-01  0.103E-01
  18.066  0.190E-01  0.103E-01
  18.076  0.192E-01  0.104E-01
  18.086  0.194E-01  0.104E-01
  18.096  0.195E-01  0.104E-01
  18.106  0.197E-01  0.104E-01
  18.116  0.198E-01  0.104E-01
  18.126  0.201E-01  0.105E-01
  18.136  0.204E-01  0.105E-01
  18.146  0.208E-01  0.106E-01
  18.156  0.213E-01  0.108E-01
  18.166  0.219E-01  0.110E-01
  18.176  0.225E-01  0.112E-01
  18.186  0.232E-01  0.114E-01
  18.196  0.239E-01  0.117E-01
  18.206  0.245E-01  0.119E-01
  18.216  0.251E-01  0.122E-01
  18.226  0.256E-01  0.124E-01
  18.236  0.260E-01  0.125E-01
  18.246  0.262E-01  0.126E-01
  18.256  0.262E-01  0.125E-01
  18.266  0.260E-01  0.124E-01
  18.276  0.256E-01  0.122E-01
  18.286  0.250E-01  0.119E-01
  18.296  0.242E-01  0.115E-01
  18.306  0.232E-01  0.110E-01
  18.316  0.220E-01  0.105E-01
  18.326  0.207E-01  0.985E-02
  18.336  0.193E-01  0.920E-02
  18.346  0.179E-01  0.852E-02
  18.356  0.164E-01  0.783E-02
  18.366  0.150E-01  0.715E-02
  18.376  0.136E-01  0.651E-02
  18.386  0.123E-01  0.592E-02
  18.396  0.111E-01  0.538E-02
  18.406  0.101E-01  0.492E-02
  18.416  0.921E-02  0.454E-02
  18.426  0.851E-02  0.424E-02
  18.436  0.800E-02  0.404E-02
  18.446  0.766E-02  0.392E-02
  18.456  0.750E-02  0.389E-02
  18.466  0.750E-02  0.395E-02
  18.476  0.765E-02  0.408E-02
  18.486  0.793E-02  0.428E-02
  18.496  0.832E-02  0.452E-02
  18.506  0.879E-02  0.481E-02
  18.516  0.932E-02  0.513E-02
  18.526  0.988E-02  0.546E-02
  18.536  0.104E-01  0.579E-02
  18.546  0.110E-01  0.610E-02
  18.556  0.115E-01  0.637E-02
  18.566  0.119E-01  0.661E-02
  18.576  0.122E-01  0.679E-02
  18.586  0.124E-01  0.691E-02
  18.596  0.125E-01  0.697E-02
  18.606  0.125E-01  0.695E-02
  18.616  0.123E-01  0.686E-02
  18.626  0.120E-01  0.670E-02
  18.636  0.116E-01  0.648E-02
  18.646  0.111E-01  0.620E-02
  18.656  0.105E-01  0.586E-02
  18.666  0.983E-02  0.549E-02
  18.676  0.911E-02  0.508E-02
  18.686  0.834E-02  0.465E-02
  18.696  0.756E-02  0.422E-02
  18.706  0.678E-02  0.378E-02
  18.716  0.601E-02  0.335E-02
  18.726  0.527E-02  0.294E-02
  18.736  0.458E-02  0.255E-02
  18.746  0.393E-02  0.219E-02
  18.756  0.334E-02  0.186E-02
  18.766  0.281E-02  0.157E-02
  18.776  0.233E-02  0.130E-02
  18.786  0.192E-02  0.107E-02
  18.796  0.156E-02  0.871E-03
  18.806  0.126E-02  0.701E-03
  18.816  0.999E-03  0.558E-03
  18.826  0.787E-03  0.439E-03
  18.836  0.613E-03  0.342E-03
  18.846  0.473E-03  0.264E-03
  18.856  0.360E-03  0.201E-03
  18.866  0.272E-03  0.152E-03
  18.876  0.203E-03  0.113E-03
  18.886  0.150E-03  0.835E-04
  18.896  0.109E-03  0.610E-04
  18.906  0.790E-04  0.441E-04
  18.916  0.565E-04  0.315E-04
  18.926  0.400E-04  0.223E-04
  18.936  0.280E-04  0.157E-04
  18.946  0.195E-04  0.109E-04
  18.956  0.135E-04  0.765E-05
  18.966  0.939E-05  0.542E-05
  18.976  0.667E-05  0.400E-05
  18.986  0.499E-05  0.321E-05
  18.996  0.413E-05  0.294E-05
  19.006  0.395E-05  0.314E-05
  19.016  0.438E-05  0.381E-05
  19.026  0.545E-05  0.502E-05
  19.036  0.724E-05  0.686E-05
  19.046  0.990E-05  0.951E-05
  19.056  0.136E-04  0.132E-04
  19.066  0.187E-04  0.182E-04
  19.076  0.256E-04  0.248E-04
  19.086  0.345E-04  0.336E-04
  19.096  0.462E-04  0.449E-04
  19.106  0.612E-04  0.595E-04
  19.116  0.803E-04  0.780E-04
  19.126  0.104E-03  0.101E-03
  19.136  0.133E-03  0.130E-03
  19.146  0.169E-03  0.165E-03
  19.156  0.213E-03  0.207E-03
  19.166  0.264E-03  0.256E-03
  19.176  0.324E-03  0.315E-03
  19.186  0.394E-03  0.383E-03
  19.196  0.473E-03  0.460E-03
  19.206  0.563E-03  0.547E-03
  19.216  0.662E-03  0.644E-03
  19.226  0.771E-03  0.749E-03
  19.236  0.887E-03  0.862E-03
  19.246  0.101E-02  0.982E-03
  19.256  0.114E-02  0.111E-02
  19.266  0.127E-02  0.123E-02
  19.276  0.140E-02  0.136E-02
  19.286  0.153E-02  0.148E-02
  19.296  0.165E-02  0.160E-02
  19.306  0.176E-02  0.171E-02
  19.316  0.186E-02  0.180E-02
  19.326  0.194E-02  0.188E-02
  19.336  0.200E-02  0.195E-02
  19.346  0.205E-02  0.199E-02
  19.356  0.207E-02  0.201E-02
  19.366  0.207E-02  0.201E-02
  19.376  0.205E-02  0.199E-02
  19.386  0.201E-02  0.195E-02
  19.396  0.194E-02  0.189E-02
  19.406  0.186E-02  0.181E-02
  19.416  0.176E-02  0.171E-02
  19.426  0.165E-02  0.161E-02
  19.436  0.153E-02  0.149E-02
  19.446  0.141E-02  0.137E-02
  19.456  0.128E-02  0.124E-02
  19.466  0.115E-02  0.112E-02
  19.476  0.102E-02  0.991E-03
  19.486  0.896E-03  0.870E-03
  19.496  0.779E-03  0.757E-03
  19.506  0.670E-03  0.651E-03
  19.516  0.570E-03  0.554E-03
  19.526  0.479E-03  0.466E-03
  19.536  0.399E-03  0.388E-03
  19.546  0.329E-03  0.319E-03
  19.556  0.268E-03  0.260E-03
  19.566  0.216E-03  0.210E-03
  19.576  0.172E-03  0.167E-03
  19.586  0.136E-03  0.132E-03
  19.596  0.106E-03  0.103E-03
  19.606  0.817E-04  0.794E-04
  19.616  0.624E-04  0.607E-04
  19.626  0.471E-04  0.458E-04
  19.636  0.352E-04  0.342E-04
  19.646  0.260E-04  0.253E-04
  19.656  0.190E-04  0.185E-04
  19.666  0.138E-04  0.134E-04
  19.676  0.986E-05  0.958E-05
  19.686  0.698E-05  0.679E-05
  19.696  0.489E-05  0.475E-05
  19.706  0.339E-05  0.329E-05
  19.716  0.232E-05  0.226E-05
  19.726  0.157E-05  0.153E-05
  19.736  0.106E-05  0.103E-05
  19.746  0.701E-06  0.681E-06
  19.756  0.460E-06  0.447E-06
  19.766  0.299E-06  0.290E-06
  19.776  0.192E-06  0.186E-06
